%OpenBCI Raw EEG Data
%
%Sample Rate = 250.0 Hz
%First Column = SampleIndex
%Last Column = Timestamp 
%Other Columns = EEG data in microvolts followed by Accel Data (in G) interleaved with Aux Data
0, 63891.01, 40359.45, 30973.55, 22445.15, 45969.27, 64094.70, 53519.02, 55259.93, 0.076, 0.026, 0.490, 10:38:17.092
1, 63943.46, 40476.06, 31069.26, 22576.78, 46085.14, 64193.92, 53646.78, 55303.20, 0.000, 0.000, 0.000, 10:38:17.599
2, 64137.57, 40838.89, 31397.16, 22964.63, 46439.50, 64543.10, 54026.89, 55552.53, 0.000, 0.000, 0.000, 10:38:17.599
3, 64107.37, 40756.75, 31331.31, 22877.05, 46356.53, 64481.52, 53938.00, 55536.39, 0.000, 0.000, 0.000, 10:38:17.600
4, 63908.91, 40389.02, 30997.31, 22484.11, 45997.96, 64128.29, 53557.28, 55286.41, 0.000, 0.000, 0.000, 10:38:17.600
5, 63916.71, 40430.71, 31026.81, 22527.38, 46039.50, 64153.89, 53602.03, 55280.51, 0.000, 0.000, 0.000, 10:38:17.601
6, 64102.79, 40788.22, 31351.25, 22906.40, 46391.27, 64496.25, 53975.28, 55517.93, 0.122, 0.038, 0.734, 10:38:17.601
7, 64132.16, 40811.33, 31384.04, 22928.73, 46412.77, 64533.80, 53992.87, 55567.51, 0.000, 0.000, 0.000, 10:38:17.601
8, 63940.20, 40448.34, 31060.97, 22521.53, 46057.94, 64187.68, 53610.59, 55330.04, 0.000, 0.000, 0.000, 10:38:17.602
9, 63899.37, 40397.87, 31007.43, 22470.95, 46010.28, 64123.31, 53559.20, 55264.62, 0.000, 0.000, 0.000, 10:38:17.602
10, 64070.16, 40740.25, 31312.92, 22841.16, 46347.44, 64443.61, 53914.98, 55482.73, 0.000, 0.000, 0.000, 10:38:17.603
11, 64144.57, 40858.54, 31428.81, 22962.19, 46461.68, 64572.20, 54035.34, 55596.72, 0.000, 0.000, 0.000, 10:38:17.604
12, 63963.61, 40508.42, 31117.63, 22590.37, 46120.12, 64246.96, 53672.10, 55377.32, 0.000, 0.000, 0.000, 10:38:17.605
13, 63879.07, 40371.25, 30979.58, 22450.58, 45984.42, 64100.96, 53530.28, 55255.41, 0.000, 0.000, 0.000, 10:38:17.605
14, 64040.32, 40683.88, 31254.38, 22782.73, 46291.07, 64392.13, 53856.44, 55443.68, 0.000, 0.000, 0.000, 10:38:17.606
15, 64162.42, 40896.23, 31453.24, 23002.36, 46498.29, 64609.44, 54077.05, 55614.36, 0.000, 0.000, 0.000, 10:38:17.607
16, 64005.49, 40587.84, 31180.53, 22668.65, 46194.68, 64325.01, 53751.88, 55423.99, 0.142, 0.048, 0.858, 10:38:17.609
17, 63869.13, 40360.84, 30962.78, 22434.11, 45970.21, 64092.38, 53515.95, 55244.41, 0.000, 0.000, 0.000, 10:38:17.609
18, 63997.13, 40617.72, 31182.87, 22725.93, 46219.72, 64324.77, 53787.62, 55387.62, 0.000, 0.000, 0.000, 10:38:17.610
19, 64156.23, 40901.97, 31445.73, 23042.70, 46494.22, 64604.16, 54086.95, 55603.79, 0.000, 0.000, 0.000, 10:38:17.611
20, 64042.15, 40670.63, 31249.55, 22755.21, 46267.82, 64396.69, 53835.07, 55473.00, 0.000, 0.000, 0.000, 10:38:17.611
21, 63879.85, 40382.23, 30986.54, 22437.11, 45988.78, 64113.50, 53533.28, 55259.41, 0.000, 0.000, 0.000, 10:38:17.611
22, 63962.55, 40561.62, 31141.92, 22643.57, 46167.73, 64275.75, 53727.20, 55355.48, 0.000, 0.000, 0.000, 10:38:17.612
23, 64145.53, 40900.32, 31449.93, 23012.69, 46499.50, 64607.02, 54084.47, 55607.34, 0.000, 0.000, 0.000, 10:38:17.612
24, 64080.50, 40744.79, 31320.98, 22848.38, 46346.45, 64476.71, 53921.14, 55539.30, 0.000, 0.000, 0.000, 10:38:17.612
25, 63898.90, 40406.07, 31016.71, 22491.98, 46017.43, 64150.69, 53572.55, 55305.34, 0.000, 0.000, 0.000, 10:38:17.612
26, 63937.36, 40508.27, 31106.86, 22614.71, 46120.70, 64233.95, 53680.37, 55340.44, 0.154, 0.052, 0.916, 10:38:17.612
27, 64136.85, 40882.66, 31439.70, 23016.37, 46484.99, 64590.62, 54072.55, 55602.49, 0.000, 0.000, 0.000, 10:38:17.613
28, 64121.90, 40820.39, 31389.29, 22936.71, 46419.61, 64546.67, 54002.50, 55598.42, 0.000, 0.000, 0.000, 10:38:17.613
29, 63927.48, 40451.05, 31058.35, 22546.56, 46059.63, 64192.84, 53620.40, 55353.47, 0.000, 0.000, 0.000, 10:38:17.613
30, 63921.58, 40464.41, 31060.10, 22572.49, 46073.70, 64191.32, 53638.60, 55329.53, 0.000, 0.000, 0.000, 10:38:17.613
31, 64109.41, 40836.93, 31391.13, 22964.70, 46436.20, 64540.86, 54021.75, 55564.45, 0.000, 0.000, 0.000, 10:38:17.614
32, 64138.13, 40873.79, 31432.07, 22986.35, 46468.40, 64590.48, 54052.26, 55617.87, 0.000, 0.000, 0.000, 10:38:17.614
33, 63953.08, 40508.49, 31106.83, 22600.52, 46110.91, 64246.27, 53670.27, 55377.99, 0.000, 0.000, 0.000, 10:38:17.614
34, 63896.73, 40430.75, 31027.53, 22521.46, 46036.72, 64157.64, 53590.94, 55294.70, 0.000, 0.000, 0.000, 10:38:17.614
35, 64067.65, 40775.32, 31335.54, 22889.71, 46376.25, 64481.67, 53952.32, 55516.19, 0.000, 0.000, 0.000, 10:38:17.614
36, 64157.37, 40912.54, 31468.93, 23031.19, 46509.84, 64631.03, 54097.16, 55647.75, 0.154, 0.054, 0.942, 10:38:17.614
37, 63982.11, 40571.95, 31164.05, 22652.33, 46175.17, 64311.40, 53736.45, 55428.17, 0.000, 0.000, 0.000, 10:38:17.615
38, 63885.80, 40415.13, 31016.20, 22489.05, 46023.98, 64147.25, 53573.24, 55290.66, 0.000, 0.000, 0.000, 10:38:17.616
39, 64035.15, 40717.97, 31283.52, 22824.35, 46323.05, 64425.39, 53889.27, 55468.67, 0.000, 0.000, 0.000, 10:38:17.616
40, 64168.53, 40949.27, 31498.99, 23064.45, 46547.84, 64658.97, 54128.55, 55654.50, 0.000, 0.000, 0.000, 10:38:17.617
41, 64019.13, 40644.75, 31234.39, 22731.46, 46250.38, 64381.38, 53811.80, 55478.75, 0.000, 0.000, 0.000, 10:38:17.617
42, 63881.37, 40400.08, 31005.87, 22482.41, 46011.63, 64135.07, 53560.93, 55292.43, 0.000, 0.000, 0.000, 10:38:17.617
43, 63992.24, 40637.28, 31210.30, 22741.36, 46245.22, 64349.87, 53810.64, 55426.00, 0.000, 0.000, 0.000, 10:38:17.618
44, 64153.98, 40932.17, 31477.89, 23060.47, 46531.73, 64642.34, 54122.38, 55643.46, 0.000, 0.000, 0.000, 10:38:17.618
45, 64050.22, 40706.66, 31280.10, 22814.49, 46307.02, 64440.77, 53882.28, 55517.46, 0.000, 0.000, 0.000, 10:38:17.618
46, 63881.48, 40399.77, 30993.02, 22492.80, 46007.13, 64140.54, 53567.14, 55295.51, 0.160, 0.058, 0.966, 10:38:17.618
47, 63953.73, 40568.55, 31133.92, 22670.88, 46174.55, 64287.55, 53743.88, 55374.66, 0.000, 0.000, 0.000, 10:38:17.618
48, 64144.14, 40924.28, 31454.45, 23049.45, 46520.44, 64633.11, 54114.64, 55627.03, 0.000, 0.000, 0.000, 10:38:17.619
49, 64075.09, 40769.20, 31326.71, 22880.09, 46368.04, 64503.94, 53951.19, 55556.00, 0.000, 0.000, 0.000, 10:38:17.619
50, 63885.71, 40422.23, 31015.73, 22511.63, 46028.48, 64167.59, 53590.27, 55317.77, 0.000, 0.000, 0.000, 10:38:17.619
51, 63919.64, 40512.76, 31091.68, 22617.77, 46118.93, 64238.26, 53686.61, 55350.72, 0.000, 0.000, 0.000, 10:38:17.620
52, 64105.45, 40882.48, 31427.04, 23011.97, 46481.01, 64590.97, 54072.98, 55599.92, 0.000, 0.000, 0.000, 10:38:17.620
53, 64088.20, 40825.48, 31385.22, 22944.47, 46422.47, 64552.08, 54009.43, 55597.59, 0.000, 0.000, 0.000, 10:38:17.620
54, 63899.23, 40461.33, 31059.04, 22562.83, 46066.95, 64204.45, 53631.63, 55355.28, 0.000, 0.000, 0.000, 10:38:17.621
55, 63879.38, 40456.32, 31052.23, 22554.88, 46066.03, 64185.94, 53629.12, 55320.97, 0.162, 0.058, 0.974, 10:38:17.621
56, 64055.58, 40820.12, 31376.24, 22941.12, 46420.13, 64527.25, 54007.42, 55549.34, 0.000, 0.000, 0.000, 10:38:17.621
57, 64090.03, 40865.31, 31422.60, 22984.41, 46460.09, 64585.74, 54050.67, 55611.21, 0.000, 0.000, 0.000, 10:38:17.621
58, 63908.64, 40504.73, 31098.07, 22600.94, 46106.28, 64245.37, 53677.51, 55382.08, 0.000, 0.000, 0.000, 10:38:17.621
59, 63848.88, 40410.12, 31000.15, 22508.65, 46014.80, 64140.03, 53583.16, 55285.54, 0.000, 0.000, 0.000, 10:38:17.622
60, 64017.27, 40750.11, 31300.69, 22877.48, 46349.67, 64456.44, 53938.69, 55492.23, 0.000, 0.000, 0.000, 10:38:17.622
61, 64114.95, 40903.85, 31446.11, 23033.09, 46498.13, 64619.14, 54094.41, 55627.37, 0.000, 0.000, 0.000, 10:38:17.622
62, 63938.97, 40561.39, 31143.98, 22662.30, 46163.93, 64299.24, 53733.61, 55413.84, 0.000, 0.000, 0.000, 10:38:17.622
63, 63839.78, 40390.52, 30982.45, 22484.94, 45997.86, 64121.88, 53555.65, 55276.04, 0.000, 0.000, 0.000, 10:38:17.622
64, 63974.51, 40677.47, 31236.18, 22799.11, 46281.18, 64387.13, 53858.76, 55445.29, 0.000, 0.000, 0.000, 10:38:17.622
65, 64109.27, 40916.86, 31457.02, 23047.91, 46513.58, 64630.13, 54111.43, 55632.91, 0.158, 0.062, 0.974, 10:38:17.623
66, 63968.68, 40627.51, 31203.12, 22733.42, 46229.71, 64365.64, 53806.59, 55462.81, 0.000, 0.000, 0.000, 10:38:17.623
67, 63821.87, 40360.52, 30956.96, 22460.89, 45969.56, 64101.16, 53533.90, 55264.38, 0.000, 0.000, 0.000, 10:38:17.624
68, 63923.15, 40583.86, 31151.58, 22704.86, 46189.34, 64302.05, 53768.59, 55381.92, 0.000, 0.000, 0.000, 10:38:17.624
69, 64091.52, 40897.63, 31439.36, 23040.04, 46494.33, 64611.71, 54096.54, 55612.32, 0.000, 0.000, 0.000, 10:38:17.625
70, 63995.07, 40684.11, 31260.59, 22811.14, 46284.14, 64425.23, 53871.86, 55500.23, 0.000, 0.000, 0.000, 10:38:17.628
71, 63822.32, 40364.93, 30971.38, 22482.26, 45974.03, 64115.06, 53543.63, 55271.97, 0.000, 0.000, 0.000, 10:38:17.628
72, 63881.46, 40513.34, 31099.68, 22633.87, 46123.16, 64243.23, 53700.09, 55336.37, 0.000, 0.000, 0.000, 10:38:17.629
73, 64061.19, 40868.91, 31414.04, 23003.83, 46469.12, 64584.43, 54068.60, 55579.49, 0.000, 0.000, 0.000, 10:38:17.629
74, 64008.11, 40733.50, 31299.37, 22851.08, 46334.20, 64471.59, 53920.92, 55521.89, 0.000, 0.000, 0.000, 10:38:17.629
75, 63828.38, 40381.04, 30979.88, 22483.60, 45989.36, 64132.45, 53554.58, 55281.36, 0.156, 0.060, 0.978, 10:38:17.630
76, 63842.73, 40439.42, 31024.09, 22549.91, 46048.95, 64173.38, 53618.57, 55282.21, 0.000, 0.000, 0.000, 10:38:17.630
77, 64037.45, 40809.93, 31358.80, 22959.46, 46411.81, 64526.62, 54012.86, 55535.54, 0.000, 0.000, 0.000, 10:38:17.630
78, 64041.23, 40774.12, 31337.21, 22933.16, 46374.48, 64510.24, 53974.84, 55555.73, 0.000, 0.000, 0.000, 10:38:17.630
79, 63849.50, 40412.85, 31009.94, 22521.21, 46020.07, 64163.65, 53585.85, 55305.88, 0.000, 0.000, 0.000, 10:38:17.630
80, 63822.45, 40398.34, 30987.65, 22477.52, 46007.38, 64132.41, 53563.83, 55258.29, 0.000, 0.000, 0.000, 10:38:17.631
81, 64011.01, 40774.57, 31321.16, 22887.74, 46375.64, 64485.52, 53958.52, 55502.31, 0.000, 0.000, 0.000, 10:38:17.631
82, 64065.13, 40844.08, 31394.16, 22953.63, 46440.69, 64570.48, 54025.68, 55587.73, 0.000, 0.000, 0.000, 10:38:17.631
83, 63875.18, 40473.66, 31068.72, 22562.21, 46079.77, 64222.80, 53638.78, 55354.25, 0.000, 0.000, 0.000, 10:38:17.631
84, 63791.79, 40344.29, 30948.40, 22440.32, 45957.04, 64084.44, 53509.31, 55233.48, 0.000, 0.000, 0.000, 10:38:17.633
85, 63951.31, 40680.46, 31245.81, 22787.09, 46288.36, 64395.98, 53862.34, 55437.60, 0.158, 0.050, 0.972, 10:38:17.633
86, 64050.17, 40846.09, 31404.60, 22954.86, 46448.96, 64570.52, 54032.39, 55582.42, 0.000, 0.000, 0.000, 10:38:17.634
87, 63892.19, 40524.67, 31119.04, 22606.51, 46132.90, 64270.50, 53693.43, 55388.16, 0.000, 0.000, 0.000, 10:38:17.634
88, 63773.19, 40319.26, 30924.02, 22390.61, 45933.84, 64060.25, 53481.82, 55221.35, 0.000, 0.000, 0.000, 10:38:17.635
89, 63901.04, 40599.33, 31170.63, 22697.99, 46211.18, 64316.65, 53776.46, 55379.08, 0.000, 0.000, 0.000, 10:38:17.635
90, 64049.39, 40865.83, 31414.48, 22971.96, 46468.00, 64583.15, 54050.45, 55585.57, 0.000, 0.000, 0.000, 10:38:17.636
91, 63926.84, 40598.07, 31182.22, 22676.78, 46204.56, 64341.55, 53765.58, 55437.82, 0.000, 0.000, 0.000, 10:38:17.636
92, 63774.44, 40319.44, 30924.06, 22388.85, 45933.37, 64066.69, 53476.84, 55228.54, 0.000, 0.000, 0.000, 10:38:17.636
93, 63865.26, 40532.29, 31103.59, 22624.81, 46143.77, 64254.94, 53701.27, 55332.84, 0.000, 0.000, 0.000, 10:38:17.636
94, 64040.07, 40860.64, 31401.12, 22973.66, 46463.42, 64578.25, 54044.57, 55566.73, 0.158, 0.054, 0.972, 10:38:17.636
95, 63952.38, 40654.54, 31228.09, 22745.80, 46262.54, 64401.54, 53826.22, 55462.39, 0.000, 0.000, 0.000, 10:38:17.636
96, 63778.71, 40327.26, 30927.46, 22401.12, 45941.57, 64081.58, 53485.40, 55230.06, 0.000, 0.000, 0.000, 10:38:17.636
97, 63825.67, 40462.45, 31036.80, 22547.23, 46074.25, 64190.81, 53625.48, 55281.09, 0.000, 0.000, 0.000, 10:38:17.637
98, 64013.29, 40829.55, 31365.20, 22935.30, 46429.91, 64540.73, 54009.50, 55523.81, 0.000, 0.000, 0.000, 10:38:17.637
99, 63977.53, 40716.29, 31273.06, 22811.47, 46316.41, 64452.53, 53887.39, 55484.05, 0.000, 0.000, 0.000, 10:38:17.637
100, 63790.67, 40352.68, 30947.71, 22434.18, 45962.65, 64106.16, 53514.01, 55251.03, 0.000, 0.000, 0.000, 10:38:17.637
101, 63794.92, 40397.85, 30980.39, 22495.94, 46009.12, 64133.99, 53565.37, 55246.76, 0.000, 0.000, 0.000, 10:38:17.637
102, 63981.08, 40779.53, 31316.98, 22904.48, 46380.27, 64495.42, 53965.02, 55490.68, 0.000, 0.000, 0.000, 10:38:17.637
103, 63984.08, 40754.52, 31306.63, 22858.84, 46353.54, 64490.61, 53933.06, 55513.75, 0.000, 0.000, 0.000, 10:38:17.637
104, 63803.23, 40388.42, 30981.77, 22466.65, 45995.93, 64143.89, 53551.18, 55283.26, 0.160, 0.058, 0.974, 10:38:17.638
105, 63756.65, 40339.00, 30926.45, 22418.15, 45948.77, 64077.11, 53502.79, 55216.38, 0.000, 0.000, 0.000, 10:38:17.638
106, 63936.94, 40717.79, 31260.81, 22826.43, 46319.23, 64429.48, 53901.68, 55451.26, 0.000, 0.000, 0.000, 10:38:17.638
107, 63997.89, 40804.36, 31347.58, 22910.29, 46400.75, 64529.80, 53986.79, 55540.71, 0.000, 0.000, 0.000, 10:38:17.638
108, 63821.18, 40450.96, 31030.54, 22526.56, 46052.32, 64195.39, 53614.17, 55319.00, 0.000, 0.000, 0.000, 10:38:17.638
109, 63738.95, 40316.45, 30903.16, 22390.90, 45924.41, 64051.56, 53475.05, 55190.30, 0.000, 0.000, 0.000, 10:38:17.638
110, 63896.50, 40655.63, 31202.68, 22763.33, 46257.74, 64364.82, 53834.91, 55392.61, 0.000, 0.000, 0.000, 10:38:17.638
111, 64004.87, 40838.94, 31371.30, 22953.23, 46431.86, 64555.77, 54022.58, 55543.59, 0.000, 0.000, 0.000, 10:38:17.638
112, 63858.06, 40520.38, 31089.29, 22612.12, 46119.00, 64262.29, 53688.62, 55357.63, 0.000, 0.000, 0.000, 10:38:17.639
113, 63732.44, 40297.91, 30882.62, 22383.64, 45903.66, 64037.70, 53460.30, 55180.89, 0.000, 0.000, 0.000, 10:38:17.639
114, 63851.67, 40575.14, 31121.43, 22693.77, 46175.68, 64287.86, 53754.49, 55328.59, 0.160, 0.054, 0.978, 10:38:17.639
115, 63988.82, 40841.22, 31364.10, 22964.25, 46433.18, 64553.20, 54030.96, 55524.28, 0.000, 0.000, 0.000, 10:38:17.639
116, 63877.46, 40578.00, 31138.86, 22669.27, 46176.27, 64316.96, 53751.65, 55379.98, 0.000, 0.000, 0.000, 10:38:17.639
117, 63730.14, 40289.71, 30877.19, 22372.84, 45896.13, 64033.52, 53454.26, 55173.16, 0.000, 0.000, 0.000, 10:38:17.639
118, 63812.30, 40493.34, 31052.29, 22596.23, 46097.97, 64214.28, 53672.55, 55266.74, 0.000, 0.000, 0.000, 10:38:17.639
119, 63986.16, 40833.71, 31363.43, 22962.79, 46428.13, 64547.10, 54028.37, 55502.49, 0.000, 0.000, 0.000, 10:38:17.641
120, 63913.63, 40638.22, 31200.15, 22739.68, 46235.27, 64377.02, 53820.70, 55410.78, 0.000, 0.000, 0.000, 10:38:17.641
121, 63750.88, 40300.66, 30890.74, 22383.55, 45904.96, 64048.05, 53469.26, 55181.74, 0.000, 0.000, 0.000, 10:38:18.051
122, 63791.30, 40424.87, 30990.51, 22526.62, 46027.00, 64146.73, 53601.20, 55224.65, 0.000, 0.000, 0.000, 10:38:18.051
123, 63968.66, 40799.55, 31325.77, 22926.16, 46389.43, 64505.75, 53993.27, 55469.72, 0.000, 0.000, 0.000, 10:38:18.052
124, 63946.06, 40701.52, 31252.68, 22803.34, 46291.71, 64430.40, 53879.53, 55443.86, 0.160, 0.060, 0.980, 10:38:18.052
125, 63773.97, 40336.61, 30927.77, 22412.43, 45936.01, 64080.26, 53497.80, 55205.05, 0.000, 0.000, 0.000, 10:38:18.053
126, 63767.69, 40360.54, 30940.13, 22459.17, 45961.96, 64086.88, 53532.18, 55182.30, 0.000, 0.000, 0.000, 10:38:18.053
127, 63949.28, 40752.84, 31292.22, 22878.71, 46345.29, 64458.11, 53943.99, 55427.25, 0.000, 0.000, 0.000, 10:38:18.053
128, 63966.51, 40747.30, 31300.69, 22862.32, 46339.90, 64474.03, 53930.67, 55460.82, 0.000, 0.000, 0.000, 10:38:18.053
129, 63797.82, 40381.89, 30977.13, 22467.71, 45984.27, 64128.67, 53545.03, 55233.64, 0.000, 0.000, 0.000, 10:38:18.053
130, 63754.41, 40320.18, 30911.03, 22399.44, 45926.53, 64052.65, 53486.02, 55160.06, 0.000, 0.000, 0.000, 10:38:18.054
131, 63914.68, 40686.72, 31226.97, 22805.71, 46282.10, 64393.23, 53875.88, 55378.75, 0.000, 0.000, 0.000, 10:38:18.054
132, 63977.55, 40782.41, 31322.59, 22898.04, 46373.05, 64504.34, 53969.80, 55474.26, 0.000, 0.000, 0.000, 10:38:18.054
133, 63827.71, 40439.09, 31019.10, 22525.82, 46037.98, 64185.00, 53607.84, 55272.20, 0.162, 0.058, 0.978, 10:38:18.054
134, 63738.39, 40287.63, 30872.77, 22366.45, 45891.68, 64023.33, 53449.86, 55136.23, 0.000, 0.000, 0.000, 10:38:18.054
135, 63871.76, 40618.28, 31155.74, 22727.95, 46213.30, 64323.87, 53798.73, 55312.99, 0.000, 0.000, 0.000, 10:38:18.054
136, 63981.11, 40812.96, 31338.87, 22926.43, 46400.32, 64527.43, 53997.95, 55467.91, 0.000, 0.000, 0.000, 10:38:18.054
137, 63856.74, 40500.98, 31069.77, 22580.92, 46095.40, 64243.45, 53666.76, 55293.70, 0.000, 0.000, 0.000, 10:38:18.055
138, 63731.50, 40259.02, 30847.53, 22331.11, 45861.40, 63999.37, 53415.04, 55108.56, 0.000, 0.000, 0.000, 10:38:18.055
139, 63840.38, 40534.82, 31079.68, 22639.23, 46132.14, 64245.28, 53712.27, 55248.05, 0.000, 0.000, 0.000, 10:38:18.055
140, 63984.13, 40816.74, 31336.16, 22937.34, 46404.93, 64527.32, 54004.54, 55449.25, 0.000, 0.000, 0.000, 10:38:18.055
141, 63884.91, 40563.56, 31123.30, 22668.22, 46158.18, 64302.30, 53733.52, 55320.81, 0.000, 0.000, 0.000, 10:38:18.055
142, 63737.52, 40262.40, 30849.81, 22343.88, 45865.09, 64005.96, 53420.42, 55109.07, 0.000, 0.000, 0.000, 10:38:18.055
143, 63800.21, 40454.93, 31007.01, 22553.47, 46053.93, 64168.30, 53627.18, 55186.81, 0.160, 0.052, 0.980, 10:38:18.056
144, 63971.56, 40808.90, 31319.11, 22924.80, 46393.08, 64509.84, 53997.43, 55416.63, 0.000, 0.000, 0.000, 10:38:18.056
145, 63922.63, 40648.88, 31186.38, 22738.63, 46233.35, 64374.88, 53820.90, 55344.06, 0.000, 0.000, 0.000, 10:38:18.057
146, 63749.32, 40311.77, 30880.12, 22381.99, 45901.00, 64042.86, 53467.85, 55089.94, 0.000, 0.000, 0.000, 10:38:18.057
147, 63750.32, 40409.45, 30949.90, 22504.00, 45994.37, 64112.38, 53577.96, 55072.04, 0.000, 0.000, 0.000, 10:38:18.057
148, 63933.41, 40799.89, 31297.87, 22925.83, 46372.69, 64486.01, 53988.58, 55324.28, 0.000, 0.000, 0.000, 10:38:18.057
149, 63931.62, 40714.48, 31242.22, 22827.95, 46291.27, 64430.55, 53893.90, 55329.57, 0.000, 0.000, 0.000, 10:38:18.057
150, 63772.45, 40339.91, 30914.23, 22446.09, 45927.94, 64077.87, 53506.05, 55104.98, 0.000, 0.000, 0.000, 10:38:18.058
151, 63763.76, 40361.93, 30924.82, 22467.53, 45953.33, 64077.44, 53529.36, 55070.61, 0.000, 0.000, 0.000, 10:38:18.058
152, 63940.79, 40761.27, 31274.80, 22882.73, 46341.71, 64452.06, 53946.80, 55307.96, 0.000, 0.000, 0.000, 10:38:18.059
153, 63981.51, 40776.31, 31305.49, 22879.83, 46355.48, 64490.10, 53959.21, 55367.86, 0.160, 0.052, 0.978, 10:38:18.060
154, 63841.07, 40415.95, 30992.44, 22500.32, 46005.43, 64154.49, 53581.45, 55166.54, 0.000, 0.000, 0.000, 10:38:18.060
155, 63771.40, 40316.06, 30894.31, 22400.67, 45911.55, 64041.90, 53479.61, 55062.87, 0.000, 0.000, 0.000, 10:38:18.060
156, 63914.77, 40677.04, 31205.78, 22791.13, 46263.32, 64375.23, 53862.20, 55263.99, 0.000, 0.000, 0.000, 10:38:18.060
157, 63995.59, 40794.70, 31324.61, 22909.80, 46376.56, 64508.43, 53979.71, 55383.53, 0.000, 0.000, 0.000, 10:38:18.061
158, 63874.49, 40461.44, 31036.38, 22542.43, 46052.59, 64203.28, 53626.10, 55213.05, 0.000, 0.000, 0.000, 10:38:18.061
159, 63778.53, 40278.47, 30863.18, 22358.29, 45876.77, 64012.51, 53436.58, 55064.04, 0.000, 0.000, 0.000, 10:38:18.061
160, 63901.55, 40604.13, 31135.71, 22716.95, 46191.51, 64304.07, 53782.16, 55225.93, 0.000, 0.000, 0.000, 10:38:18.061
161, 64014.34, 40814.48, 31328.34, 22934.92, 46392.16, 64521.46, 54000.92, 55387.96, 0.000, 0.000, 0.000, 10:38:18.061
162, 63913.76, 40518.26, 31075.52, 22607.49, 46103.91, 64255.27, 53686.90, 55253.42, 0.000, 0.000, 0.000, 10:38:18.061
163, 63798.92, 40267.34, 30846.75, 22338.53, 45861.89, 64004.46, 53424.82, 55075.84, 0.162, 0.062, 0.978, 10:38:18.061
164, 63878.80, 40523.36, 31063.22, 22630.87, 46112.96, 64226.75, 53702.95, 55185.61, 0.000, 0.000, 0.000, 10:38:18.061
165, 64021.29, 40821.39, 31340.34, 22943.39, 46400.79, 64521.73, 54013.84, 55393.88, 0.000, 0.000, 0.000, 10:38:18.062
166, 63945.01, 40580.69, 31143.71, 22675.20, 46167.26, 64314.66, 53754.22, 55293.79, 0.000, 0.000, 0.000, 10:38:18.062
167, 63800.91, 40261.46, 30860.49, 22328.74, 45861.22, 64005.11, 53419.91, 55093.98, 0.000, 0.000, 0.000, 10:38:18.062
168, 63858.55, 40451.31, 31012.02, 22549.96, 46045.98, 64160.41, 53624.71, 55166.90, 0.000, 0.000, 0.000, 10:38:18.062
169, 64022.79, 40811.33, 31331.27, 22937.90, 46391.11, 64507.67, 54001.95, 55397.63, 0.000, 0.000, 0.000, 10:38:18.062
170, 63992.50, 40656.52, 31205.92, 22761.65, 46239.92, 64385.27, 53829.88, 55357.69, 0.000, 0.000, 0.000, 10:38:18.062
171, 63856.76, 40317.32, 30902.52, 22384.58, 45911.33, 64059.63, 53471.47, 55156.93, 0.000, 0.000, 0.000, 10:38:18.062
172, 63864.27, 40403.86, 30963.98, 22486.30, 45996.00, 64114.55, 53569.39, 55153.13, 0.000, 0.000, 0.000, 10:38:18.063
173, 64023.82, 40790.75, 31303.91, 22910.67, 46369.09, 64479.66, 53978.10, 55379.46, 0.160, 0.064, 0.978, 10:38:18.063
174, 64029.48, 40727.36, 31266.47, 22827.79, 46308.14, 64446.02, 53901.61, 55390.35, 0.000, 0.000, 0.000, 10:38:18.063
175, 63888.97, 40369.95, 30960.36, 22433.04, 45964.93, 64110.48, 53519.71, 55190.28, 0.000, 0.000, 0.000, 10:38:18.063
176, 63860.18, 40364.54, 30944.76, 22444.37, 45963.54, 64081.40, 53520.58, 55134.09, 0.000, 0.000, 0.000, 10:38:18.063
177, 64023.86, 40763.59, 31290.54, 22884.74, 46348.78, 64451.72, 53945.17, 55355.14, 0.000, 0.000, 0.000, 10:38:18.063
178, 64065.82, 40798.79, 31337.41, 22906.60, 46380.74, 64511.04, 53974.07, 55429.53, 0.000, 0.000, 0.000, 10:38:18.063
179, 63929.43, 40441.59, 31032.09, 22517.50, 46036.07, 64181.60, 53596.64, 55250.89, 0.000, 0.000, 0.000, 10:38:18.063
180, 63871.70, 40346.60, 30938.52, 22417.39, 45945.44, 64069.42, 53500.29, 55153.69, 0.000, 0.000, 0.000, 10:38:18.064
181, 64015.19, 40722.04, 31259.32, 22834.59, 46305.21, 64409.07, 53900.92, 55347.81, 0.000, 0.000, 0.000, 10:38:18.064
182, 64092.82, 40852.30, 31383.95, 22963.69, 46427.97, 64555.25, 54033.46, 55462.90, 0.160, 0.056, 0.978, 10:38:18.064
183, 63979.47, 40526.57, 31107.90, 22604.05, 46114.35, 64263.88, 53687.70, 55306.93, 0.000, 0.000, 0.000, 10:38:18.064
184, 63879.90, 40329.50, 30922.97, 22407.98, 45925.75, 64060.72, 53485.24, 55151.68, 0.000, 0.000, 0.000, 10:38:18.064
185, 64001.07, 40653.08, 31195.39, 22767.89, 46239.41, 64348.68, 53832.70, 55308.27, 0.000, 0.000, 0.000, 10:38:18.065
186, 64119.24, 40878.90, 31405.50, 22995.83, 46455.04, 64580.76, 54063.46, 55478.70, 0.000, 0.000, 0.000, 10:38:18.065
187, 64023.95, 40600.00, 31172.88, 22690.17, 46186.48, 64335.20, 53764.06, 55354.43, 0.000, 0.000, 0.000, 10:38:18.065
188, 63893.42, 40319.82, 30921.69, 22395.40, 45918.82, 64058.80, 53471.36, 55168.71, 0.000, 0.000, 0.000, 10:38:18.065
189, 63977.93, 40560.97, 31120.80, 22663.97, 46152.73, 64263.74, 53730.29, 55272.35, 0.000, 0.000, 0.000, 10:38:18.065
190, 64125.05, 40869.14, 31400.42, 22988.03, 46449.70, 64565.71, 54051.97, 55478.75, 0.000, 0.000, 0.000, 10:38:18.065
191, 64052.88, 40660.19, 31227.06, 22752.35, 46246.96, 64388.85, 53825.88, 55399.40, 0.000, 0.000, 0.000, 10:38:18.065
192, 63906.45, 40334.59, 30935.89, 22400.43, 45934.06, 64075.18, 53480.23, 55197.50, 0.160, 0.058, 0.976, 10:38:18.066
193, 63956.41, 40499.04, 31067.09, 22583.93, 46094.08, 64203.64, 53654.04, 55247.95, 0.000, 0.000, 0.000, 10:38:18.066
194, 64117.03, 40858.74, 31382.50, 22968.56, 46438.59, 64544.30, 54027.79, 55466.84, 0.000, 0.000, 0.000, 10:38:18.066
195, 64074.80, 40721.14, 31274.94, 22806.40, 46305.39, 64437.73, 53877.67, 55431.52, 0.000, 0.000, 0.000, 10:38:18.066
196, 63907.73, 40350.26, 30952.98, 22415.13, 45949.95, 64090.65, 53489.31, 55219.47, 0.000, 0.000, 0.000, 10:38:18.066
197, 63915.32, 40412.94, 30998.29, 22494.17, 46015.67, 64126.53, 53558.67, 55209.99, 0.000, 0.000, 0.000, 10:38:18.066
198, 64080.04, 40796.25, 31333.66, 22894.76, 46385.97, 64484.07, 53960.37, 55423.03, 0.000, 0.000, 0.000, 10:38:18.067
199, 64081.58, 40754.00, 31311.11, 22837.25, 46343.99, 64466.68, 53909.72, 55441.62, 0.000, 0.000, 0.000, 10:38:18.067
200, 63930.28, 40391.52, 30999.72, 22445.29, 45994.59, 64131.54, 53531.15, 55251.83, 0.000, 0.000, 0.000, 10:38:18.067
201, 63894.63, 40353.39, 30953.86, 22419.76, 45958.29, 64071.90, 53495.93, 55184.42, 0.000, 0.000, 0.000, 10:38:18.067
202, 64054.13, 40733.55, 31278.65, 22836.04, 46321.62, 64417.75, 53896.67, 55387.44, 0.160, 0.060, 0.978, 10:38:18.067
203, 64099.84, 40793.21, 31342.58, 22882.38, 46378.01, 64496.02, 53952.73, 55463.15, 0.000, 0.000, 0.000, 10:38:18.067
204, 63962.02, 40447.58, 31044.29, 22509.23, 46044.66, 64183.10, 53589.04, 55289.99, 0.000, 0.000, 0.000, 10:38:18.067
205, 63889.22, 40319.73, 30921.51, 22384.38, 45923.49, 64041.99, 53455.78, 55175.82, 0.000, 0.000, 0.000, 10:38:18.067
206, 64026.84, 40668.59, 31215.64, 22762.77, 46259.46, 64354.25, 53826.66, 55356.62, 0.000, 0.000, 0.000, 10:38:18.068
207, 64108.98, 40819.85, 31354.62, 22911.99, 46404.48, 64517.39, 53982.23, 55486.10, 0.000, 0.000, 0.000, 10:38:18.068
208, 63987.41, 40507.30, 31085.55, 22578.73, 46103.22, 64240.41, 53653.55, 55336.10, 0.000, 0.000, 0.000, 10:38:18.068
209, 63886.38, 40295.90, 30895.74, 22354.61, 45902.01, 64027.98, 53435.69, 55189.76, 0.000, 0.000, 0.000, 10:38:18.068
210, 64003.46, 40594.28, 31147.71, 22688.81, 46189.86, 64289.49, 53754.11, 55325.57, 0.000, 0.000, 0.000, 10:38:18.068
211, 64121.45, 40833.26, 31364.59, 22939.68, 46418.16, 64529.86, 54002.84, 55493.19, 0.000, 0.000, 0.000, 10:38:18.068
212, 64024.51, 40572.19, 31144.85, 22648.31, 46166.70, 64303.51, 53726.51, 55382.61, 0.156, 0.060, 0.986, 10:38:18.068
213, 63887.83, 40280.70, 30884.37, 22348.21, 45888.53, 64018.43, 53420.36, 55183.39, 0.000, 0.000, 0.000, 10:38:18.068
214, 63966.96, 40510.41, 31075.21, 22604.65, 46112.05, 64211.60, 53665.15, 55272.84, 0.000, 0.000, 0.000, 10:38:18.069
215, 64108.45, 40822.35, 31355.61, 22922.27, 46410.27, 64513.17, 53986.59, 55467.84, 0.000, 0.000, 0.000, 10:38:18.069
216, 64041.41, 40633.97, 31201.54, 22709.33, 46225.77, 64355.18, 53783.61, 55403.13, 0.000, 0.000, 0.000, 10:38:18.070
217, 63877.42, 40286.92, 30895.43, 22342.11, 45893.14, 64024.87, 53419.55, 55193.27, 0.000, 0.000, 0.000, 10:38:18.070
218, 63917.63, 40425.88, 31003.81, 22502.55, 46030.80, 64131.54, 53571.45, 55220.79, 0.000, 0.000, 0.000, 10:38:18.070
219, 64080.97, 40786.37, 31321.14, 22884.92, 46375.98, 64473.34, 53951.36, 55430.67, 0.000, 0.000, 0.000, 10:38:18.071
220, 64049.05, 40674.70, 31238.93, 22763.55, 46267.82, 64392.04, 53829.73, 55410.73, 0.000, 0.000, 0.000, 10:38:18.071
221, 63882.58, 40302.81, 30917.24, 22374.63, 45912.61, 64045.28, 53440.25, 55198.28, 0.158, 0.060, 0.988, 10:38:18.072
222, 63867.71, 40338.95, 30939.28, 22430.38, 45950.09, 64052.23, 53483.68, 55167.68, 0.000, 0.000, 0.000, 10:38:18.072
223, 64035.60, 40720.88, 31271.41, 22827.23, 46316.61, 64405.90, 53885.38, 55377.76, 0.000, 0.000, 0.000, 10:38:18.072
224, 64041.59, 40696.76, 31262.98, 22778.80, 46292.27, 64409.23, 53856.26, 55414.51, 0.000, 0.000, 0.000, 10:38:18.072
225, 63881.20, 40325.74, 30939.60, 22382.68, 45934.60, 64072.75, 53470.49, 55218.91, 0.000, 0.000, 0.000, 10:38:18.072
226, 63837.43, 40275.52, 30879.80, 22345.96, 45886.81, 64002.39, 53423.15, 55141.86, 0.000, 0.000, 0.000, 10:38:18.073
227, 63990.89, 40650.13, 31199.97, 22757.34, 46245.22, 64343.41, 53821.03, 55338.52, 0.000, 0.000, 0.000, 10:38:18.073
228, 64034.71, 40717.37, 31267.09, 22824.57, 46306.46, 64427.14, 53885.11, 55412.27, 0.000, 0.000, 0.000, 10:38:18.073
229, 63888.68, 40372.21, 30967.74, 22446.94, 45973.91, 64114.88, 53518.86, 55234.55, 0.000, 0.000, 0.000, 10:38:18.074
230, 63808.02, 40226.12, 30830.81, 22296.18, 45836.48, 63957.86, 53370.82, 55111.29, 0.000, 0.000, 0.000, 10:38:18.074
231, 63952.29, 40575.01, 31128.85, 22681.37, 46172.40, 64268.06, 53740.27, 55284.18, 0.166, 0.056, 0.984, 10:38:18.075
232, 64033.81, 40736.21, 31281.11, 22847.75, 46326.63, 64439.70, 53905.92, 55409.53, 0.000, 0.000, 0.000, 10:38:18.076
233, 63906.52, 40427.58, 31017.65, 22508.96, 46028.34, 64167.45, 53580.01, 55264.44, 0.000, 0.000, 0.000, 10:38:18.076
234, 63783.74, 40191.59, 30800.39, 22255.38, 45802.03, 63927.30, 53331.42, 55093.07, 0.000, 0.000, 0.000, 10:38:18.076
235, 63897.89, 40485.18, 31045.14, 22584.20, 46084.07, 64180.93, 53643.49, 55228.72, 0.000, 0.000, 0.000, 10:38:18.076
236, 64023.66, 40739.96, 31277.00, 22847.53, 46327.48, 64434.78, 53907.40, 55402.46, 0.000, 0.000, 0.000, 10:38:18.076
237, 63924.55, 40488.69, 31064.16, 22562.61, 46083.80, 64217.70, 53638.91, 55291.48, 0.000, 0.000, 0.000, 10:38:18.076
238, 63775.63, 40182.02, 30789.37, 22233.57, 45789.96, 63918.45, 53313.56, 55086.48, 0.000, 0.000, 0.000, 10:38:18.076
239, 63850.19, 40396.95, 30967.69, 22484.13, 45998.14, 64097.56, 53543.78, 55167.59, 0.000, 0.000, 0.000, 10:38:18.077
240, 63998.50, 40717.61, 31253.35, 22828.15, 46304.77, 64408.36, 53880.27, 55374.57, 0.000, 0.000, 0.000, 10:38:18.077
241, 63931.84, 40540.05, 31108.02, 22617.30, 46132.39, 64263.18, 53690.00, 55315.31, 0.164, 0.054, 0.978, 10:38:18.077
242, 63764.34, 40177.84, 30788.25, 22228.21, 45785.94, 63921.20, 53313.91, 55091.39, 0.000, 0.000, 0.000, 10:38:18.082
243, 63801.42, 40306.50, 30888.84, 22384.78, 45912.74, 64017.09, 53455.18, 55116.65, 0.000, 0.000, 0.000, 10:38:18.083
244, 63965.26, 40674.99, 31213.92, 22783.06, 46265.61, 64362.88, 53839.90, 55333.64, 0.000, 0.000, 0.000, 10:38:18.083
245, 63936.34, 40584.20, 31146.10, 22665.67, 46177.03, 64299.95, 53741.13, 55325.95, 0.000, 0.000, 0.000, 10:38:18.543
246, 63773.73, 40219.06, 30828.40, 22269.47, 45825.97, 63961.59, 53357.93, 55117.99, 0.000, 0.000, 0.000, 10:38:18.543
247, 63765.66, 40250.11, 30843.98, 22322.48, 45858.13, 63965.01, 53396.33, 55084.44, 0.000, 0.000, 0.000, 10:38:18.543
248, 63932.38, 40638.69, 31183.03, 22742.34, 46229.51, 64321.23, 53801.63, 55295.62, 0.000, 0.000, 0.000, 10:38:18.543
249, 63947.60, 40644.93, 31201.89, 22734.52, 46232.64, 64348.43, 53802.41, 55341.89, 0.000, 0.000, 0.000, 10:38:18.543
250, 63785.46, 40284.17, 30889.19, 22354.29, 45886.21, 64018.77, 53421.65, 55147.27, 0.000, 0.000, 0.000, 10:38:18.543
251, 63734.88, 40216.44, 30818.79, 22287.28, 45823.87, 63932.45, 53357.70, 55063.39, 0.164, 0.058, 0.982, 10:38:18.544
252, 63895.95, 40594.88, 31144.49, 22696.07, 46188.40, 64278.09, 53760.84, 55266.83, 0.000, 0.000, 0.000, 10:38:18.544
253, 63950.86, 40688.62, 31237.19, 22782.10, 46276.18, 64389.85, 53857.33, 55366.03, 0.000, 0.000, 0.000, 10:38:18.545
254, 63811.37, 40357.57, 30956.03, 22426.58, 45958.47, 64095.59, 53512.76, 55207.62, 0.000, 0.000, 0.000, 10:38:18.545
255, 63722.86, 40200.37, 30805.64, 22272.78, 45808.02, 63927.69, 53350.39, 55079.82, 0.000, 0.000, 0.000, 10:38:18.545
0, 63874.29, 40556.14, 31105.67, 22659.95, 46148.71, 64241.30, 53722.08, 55253.80, 0.000, 0.000, 0.000, 10:38:18.546
1, 63982.61, 40757.82, 31291.79, 22860.47, 46339.68, 64447.14, 53924.30, 55402.69, 0.000, 0.000, 0.000, 10:38:18.546
2, 63868.95, 40469.91, 31047.76, 22547.30, 46061.27, 64195.79, 53622.82, 55275.26, 0.000, 0.000, 0.000, 10:38:18.546
3, 63744.09, 40219.14, 30820.17, 22285.22, 45821.43, 63946.10, 53361.19, 55095.28, 0.000, 0.000, 0.000, 10:38:18.546
4, 63853.28, 40501.54, 31058.96, 22599.94, 46093.34, 64189.31, 53660.23, 55220.63, 0.162, 0.056, 0.984, 10:38:18.547
5, 63986.29, 40776.31, 31307.24, 22876.63, 46354.97, 64456.37, 53940.19, 55397.28, 0.000, 0.000, 0.000, 10:38:18.547
6, 63900.48, 40554.24, 31121.92, 22625.49, 46139.61, 64265.73, 53703.64, 55306.80, 0.000, 0.000, 0.000, 10:38:18.547
7, 63739.95, 40223.82, 30826.25, 22282.70, 45822.66, 63947.42, 53360.68, 55096.15, 0.000, 0.000, 0.000, 10:38:18.548
8, 63818.88, 40431.58, 30995.23, 22522.76, 46024.05, 64121.16, 53587.88, 55184.62, 0.000, 0.000, 0.000, 10:38:18.548
9, 63975.81, 40764.95, 31290.18, 22881.10, 46344.57, 64442.40, 53939.81, 55392.89, 0.000, 0.000, 0.000, 10:38:18.548
10, 63924.73, 40606.61, 31159.54, 22719.36, 46190.37, 64317.79, 53775.75, 55344.39, 0.000, 0.000, 0.000, 10:38:18.548
11, 63762.39, 40244.63, 30838.79, 22343.03, 45842.31, 63976.01, 53397.18, 55128.86, 0.000, 0.000, 0.000, 10:38:18.548
12, 63790.45, 40369.44, 30941.27, 22462.74, 45967.16, 64066.98, 53523.66, 55151.65, 0.000, 0.000, 0.000, 10:38:18.548
13, 63961.62, 40747.50, 31277.22, 22857.52, 46331.32, 64421.04, 53915.00, 55365.34, 0.000, 0.000, 0.000, 10:38:18.548
14, 63947.18, 40677.16, 31226.26, 22779.27, 46260.42, 64377.22, 53838.60, 55365.43, 0.164, 0.058, 0.980, 10:38:18.548
15, 63776.88, 40297.60, 30899.18, 22365.24, 45896.38, 64027.71, 53442.10, 55149.87, 0.000, 0.000, 0.000, 10:38:18.549
16, 63768.83, 40318.95, 30908.53, 22402.13, 45920.16, 64022.64, 53471.43, 55122.80, 0.000, 0.000, 0.000, 10:38:18.549
17, 63927.35, 40695.82, 31236.14, 22815.34, 46281.61, 64369.04, 53867.28, 55332.28, 0.000, 0.000, 0.000, 10:38:18.549
18, 63946.57, 40711.18, 31263.03, 22823.34, 46294.55, 64408.07, 53879.84, 55382.17, 0.000, 0.000, 0.000, 10:38:18.549
19, 63785.08, 40340.38, 30942.28, 22413.05, 45937.08, 64071.99, 53488.71, 55186.21, 0.000, 0.000, 0.000, 10:38:18.549
20, 63731.15, 40253.66, 30853.47, 22333.39, 45854.00, 63965.82, 53401.20, 55095.89, 0.000, 0.000, 0.000, 10:38:18.549
21, 63889.09, 40625.84, 31174.31, 22738.03, 46209.05, 64299.15, 53792.58, 55289.18, 0.000, 0.000, 0.000, 10:38:18.550
22, 63955.36, 40734.89, 31277.22, 22850.66, 46311.32, 64421.19, 53902.50, 55382.61, 0.000, 0.000, 0.000, 10:38:18.550
23, 63815.99, 40399.39, 30986.02, 22488.94, 45988.11, 64120.58, 53548.88, 55211.36, 0.000, 0.000, 0.000, 10:38:18.550
24, 63731.39, 40230.50, 30828.15, 22310.06, 45826.19, 63942.75, 53374.76, 55079.43, 0.160, 0.062, 0.980, 10:38:18.550
25, 63866.60, 40562.89, 31108.67, 22680.27, 46144.71, 64237.70, 53732.27, 55247.01, 0.000, 0.000, 0.000, 10:38:18.550
26, 63963.07, 40758.47, 31283.72, 22880.43, 46329.62, 64438.58, 53935.00, 55391.31, 0.000, 0.000, 0.000, 10:38:18.550
27, 63845.90, 40471.14, 31040.11, 22572.31, 46053.11, 64189.80, 53635.13, 55259.79, 0.000, 0.000, 0.000, 10:38:18.550
28, 63706.80, 40198.11, 30793.77, 22288.40, 45794.12, 63920.93, 53352.67, 55069.38, 0.000, 0.000, 0.000, 10:38:18.550
29, 63820.20, 40487.14, 31036.02, 22608.32, 46072.04, 64168.55, 53658.04, 55208.02, 0.000, 0.000, 0.000, 10:38:18.551
30, 63957.28, 40775.68, 31293.98, 22906.87, 46346.56, 64448.19, 53954.29, 55396.25, 0.000, 0.000, 0.000, 10:38:18.551
31, 63874.51, 40557.44, 31113.45, 22660.18, 46136.99, 64265.87, 53722.21, 55306.66, 0.000, 0.000, 0.000, 10:38:18.551
32, 63721.34, 40230.68, 30825.49, 22309.95, 45826.68, 63953.21, 53377.17, 55100.47, 0.000, 0.000, 0.000, 10:38:18.551
33, 63793.17, 40433.86, 30992.44, 22538.74, 46024.52, 64118.30, 53595.64, 55180.00, 0.000, 0.000, 0.000, 10:38:18.551
34, 63932.22, 40758.27, 31281.73, 22880.00, 46333.40, 64425.04, 53931.94, 55365.65, 0.158, 0.058, 0.978, 10:38:18.551
35, 63888.79, 40617.72, 31171.90, 22724.79, 46195.98, 64317.68, 53783.35, 55329.46, 0.000, 0.000, 0.000, 10:38:18.551
36, 63725.92, 40246.55, 30848.22, 22329.19, 45841.08, 63973.62, 53397.89, 55117.61, 0.000, 0.000, 0.000, 10:38:18.552
37, 63762.35, 40359.56, 30937.63, 22464.60, 45952.95, 64054.71, 53523.51, 55145.02, 0.000, 0.000, 0.000, 10:38:18.552
38, 63934.66, 40739.38, 31273.62, 22868.18, 46317.75, 64410.10, 53920.30, 55365.25, 0.000, 0.000, 0.000, 10:38:18.552
39, 63919.46, 40670.85, 31224.89, 22789.19, 46249.94, 64371.48, 53845.98, 55363.35, 0.000, 0.000, 0.000, 10:38:18.552
40, 63749.50, 40281.91, 30884.10, 22367.55, 45874.43, 64014.14, 53437.10, 55142.22, 0.000, 0.000, 0.000, 10:38:18.552
41, 63734.95, 40288.01, 30878.06, 22386.19, 45882.45, 63992.98, 53449.08, 55104.27, 0.000, 0.000, 0.000, 10:38:18.552
42, 63908.91, 40682.54, 31220.24, 22811.12, 46259.01, 64353.11, 53861.27, 55327.00, 0.000, 0.000, 0.000, 10:38:18.552
43, 63955.09, 40736.14, 31281.22, 22853.70, 46308.48, 64426.91, 53910.64, 55407.31, 0.000, 0.000, 0.000, 10:38:18.553
44, 63800.39, 40365.71, 30964.00, 22451.79, 45952.70, 64094.59, 53520.65, 55214.26, 0.162, 0.058, 0.984, 10:38:18.553
45, 63730.83, 40261.05, 30862.64, 22342.71, 45854.85, 63970.55, 53413.43, 55106.61, 0.000, 0.000, 0.000, 10:38:18.553
46, 63887.95, 40634.60, 31184.04, 22754.05, 46213.35, 64304.38, 53807.46, 55299.71, 0.000, 0.000, 0.000, 10:38:18.553
47, 63966.51, 40772.11, 31310.52, 22893.46, 46343.61, 64453.44, 53947.61, 55420.48, 0.000, 0.000, 0.000, 10:38:18.553
48, 63838.17, 40441.90, 31023.82, 22536.73, 46024.79, 64161.53, 53598.45, 55257.78, 0.000, 0.000, 0.000, 10:38:18.553
49, 63719.68, 40225.45, 30825.40, 22309.43, 45818.82, 63937.81, 53373.17, 55090.79, 0.000, 0.000, 0.000, 10:38:18.553
50, 63858.15, 40562.89, 31109.96, 22677.83, 46141.13, 64232.34, 53728.20, 55258.18, 0.000, 0.000, 0.000, 10:38:18.553
51, 63968.81, 40786.70, 31314.99, 22900.95, 46353.47, 64457.63, 53956.84, 55419.43, 0.000, 0.000, 0.000, 10:38:18.554
52, 63865.95, 40511.95, 31081.26, 22593.43, 46088.27, 64220.11, 53664.28, 55297.90, 0.000, 0.000, 0.000, 10:38:18.554
53, 63727.37, 40222.14, 30818.32, 22287.10, 45811.48, 63933.79, 53358.82, 55102.26, 0.160, 0.058, 0.982, 10:38:18.554
54, 63823.73, 40485.16, 31033.72, 22572.56, 46063.81, 64152.95, 53637.52, 55208.63, 0.000, 0.000, 0.000, 10:38:18.554
55, 63967.76, 40792.89, 31309.21, 22891.49, 46357.76, 64450.27, 53954.92, 55406.51, 0.000, 0.000, 0.000, 10:38:18.554
56, 63897.60, 40592.13, 31147.63, 22666.23, 46164.60, 64286.07, 53740.14, 55333.66, 0.000, 0.000, 0.000, 10:38:18.554
57, 63733.80, 40236.49, 30835.88, 22290.63, 45827.38, 63948.43, 53369.95, 55116.79, 0.000, 0.000, 0.000, 10:38:18.554
58, 63794.36, 40416.38, 30982.11, 22500.70, 46000.65, 64089.00, 53564.57, 55180.51, 0.000, 0.000, 0.000, 10:38:18.554
59, 63953.32, 40768.60, 31294.65, 22879.65, 46338.07, 64423.20, 53932.95, 55394.64, 0.000, 0.000, 0.000, 10:38:18.555
60, 63918.14, 40648.23, 31197.31, 22745.71, 46221.80, 64337.39, 53805.18, 55369.27, 0.000, 0.000, 0.000, 10:38:18.555
61, 63728.49, 40247.82, 30843.06, 22310.82, 45838.62, 63964.81, 53382.94, 55126.62, 0.000, 0.000, 0.000, 10:38:18.555
62, 63743.11, 40330.05, 30904.26, 22401.90, 45919.71, 64013.70, 53473.21, 55129.48, 0.000, 0.000, 0.000, 10:38:18.555
63, 63905.85, 40710.59, 31240.21, 22809.98, 46283.82, 64364.66, 53871.79, 55349.38, 0.162, 0.056, 0.980, 10:38:18.555
64, 63908.33, 40677.94, 31224.85, 22781.77, 46250.07, 64359.45, 53838.87, 55376.94, 0.000, 0.000, 0.000, 10:38:18.555
65, 63745.23, 40300.62, 30899.16, 22350.80, 45888.33, 64013.88, 53435.06, 55159.36, 0.000, 0.000, 0.000, 10:38:18.555
66, 63714.18, 40284.82, 30870.64, 22334.04, 45873.89, 63969.48, 53419.06, 55098.14, 0.000, 0.000, 0.000, 10:38:18.556
67, 63871.63, 40661.67, 31195.05, 22747.46, 46234.00, 64311.13, 53816.74, 55302.06, 0.000, 0.000, 0.000, 10:38:18.556
68, 63910.25, 40724.92, 31261.62, 22803.67, 46294.51, 64394.88, 53879.19, 55378.25, 0.000, 0.000, 0.000, 10:38:18.556
69, 63753.63, 40355.36, 30943.93, 22391.75, 45939.72, 64066.07, 53490.65, 55184.33, 0.000, 0.000, 0.000, 10:38:18.557
70, 63676.59, 40230.77, 30821.91, 22265.24, 45822.17, 63923.62, 53360.83, 55066.07, 0.000, 0.000, 0.000, 10:38:18.557
71, 63835.29, 40604.80, 31145.46, 22669.90, 46180.94, 64254.94, 53751.88, 55261.36, 0.000, 0.000, 0.000, 10:38:18.558
72, 63923.59, 40774.70, 31304.60, 22830.88, 46342.23, 64431.27, 53921.52, 55399.91, 0.000, 0.000, 0.000, 10:38:18.558
73, 63774.06, 40442.15, 31020.67, 22465.92, 46022.22, 64136.25, 53567.81, 55230.71, 0.160, 0.056, 0.984, 10:38:18.558
74, 63658.19, 40213.67, 30814.02, 22224.96, 45806.48, 63905.25, 53330.21, 55062.05, 0.000, 0.000, 0.000, 10:38:18.558
75, 63796.53, 40542.04, 31094.56, 22569.65, 46122.91, 64190.56, 53673.00, 55218.08, 0.000, 0.000, 0.000, 10:38:18.559
76, 63928.65, 40797.65, 31327.24, 22827.05, 46366.55, 64444.28, 53936.97, 55393.34, 0.000, 0.000, 0.000, 10:38:18.565
77, 63827.55, 40540.79, 31107.77, 22531.88, 46116.81, 64223.18, 53659.47, 55267.23, 0.000, 0.000, 0.000, 10:38:18.566
78, 63672.77, 40230.05, 30828.75, 22189.76, 45820.14, 63919.53, 53332.69, 55057.48, 0.000, 0.000, 0.000, 10:38:18.566
79, 63770.29, 40484.73, 31040.80, 22464.98, 46063.88, 64131.31, 53600.73, 55168.48, 0.000, 0.000, 0.000, 10:38:18.566
80, 63913.65, 40797.12, 31320.52, 22803.61, 46361.59, 64429.30, 53924.09, 55365.40, 0.000, 0.000, 0.000, 10:38:18.566
81, 63834.03, 40600.49, 31159.52, 22587.31, 46172.71, 64268.95, 53716.56, 55284.38, 0.000, 0.000, 0.000, 10:38:18.566
82, 63659.55, 40233.34, 30836.73, 22190.83, 45822.55, 63921.54, 53331.62, 55047.52, 0.000, 0.000, 0.000, 10:38:18.566
83, 63713.71, 40401.47, 30974.69, 22384.18, 45986.01, 64052.57, 53510.95, 55107.31, 0.158, 0.052, 0.982, 10:38:18.566
84, 63877.98, 40764.89, 31296.67, 22779.80, 46335.25, 64395.78, 53892.38, 55334.40, 0.000, 0.000, 0.000, 10:38:18.566
85, 63850.57, 40668.50, 31221.03, 22662.46, 46241.76, 64333.91, 53790.86, 55321.26, 0.000, 0.000, 0.000, 10:38:18.566
86, 63669.16, 40270.58, 30870.35, 22232.65, 45859.59, 63967.07, 53374.76, 55080.15, 0.000, 0.000, 0.000, 10:38:18.566
87, 63683.14, 40341.84, 30921.89, 22318.44, 45929.32, 64005.07, 53456.21, 55075.39, 0.000, 0.000, 0.000, 10:38:18.566
88, 63856.50, 40731.49, 31262.18, 22737.27, 46302.11, 64364.26, 53865.04, 55302.37, 0.000, 0.000, 0.000, 10:38:18.567
89, 63860.30, 40720.23, 31259.32, 22713.71, 46287.69, 64377.07, 53852.30, 55337.39, 0.000, 0.000, 0.000, 10:38:18.567
90, 63679.54, 40322.61, 30913.38, 22282.77, 45904.29, 64013.18, 53432.92, 55107.46, 0.000, 0.000, 0.000, 10:38:18.567
91, 63642.19, 40288.37, 30871.27, 22266.61, 45873.13, 63953.73, 53401.76, 55042.69, 0.000, 0.000, 0.000, 10:38:18.567
92, 63806.25, 40677.11, 31211.01, 22690.80, 46244.37, 64302.97, 53805.39, 55254.49, 0.158, 0.056, 0.980, 10:38:18.567
93, 63858.24, 40770.00, 31301.58, 22783.06, 46329.96, 64409.81, 53899.13, 55348.59, 0.000, 0.000, 0.000, 10:38:18.567
94, 63702.56, 40406.95, 30988.99, 22384.56, 45980.89, 64086.83, 53516.94, 55154.85, 0.000, 0.000, 0.000, 10:38:18.567
95, 63623.52, 40273.33, 30858.19, 22249.24, 45852.34, 63935.15, 53375.50, 55030.42, 0.000, 0.000, 0.000, 10:38:18.567
96, 63786.42, 40646.40, 31177.29, 22658.68, 46207.89, 64263.36, 53762.83, 55228.43, 0.000, 0.000, 0.000, 10:38:18.567
97, 63891.86, 40842.29, 31355.29, 22859.11, 46392.25, 64462.32, 53963.37, 55382.03, 0.000, 0.000, 0.000, 10:38:18.568
98, 63750.37, 40513.21, 31072.61, 22509.61, 46074.72, 64174.52, 53619.51, 55212.81, 0.000, 0.000, 0.000, 10:38:18.568
99, 63627.95, 40270.85, 30850.53, 22260.08, 45846.13, 63931.69, 53368.52, 55036.68, 0.000, 0.000, 0.000, 10:38:18.568
100, 63774.42, 40596.87, 31133.07, 22624.01, 46163.04, 64219.38, 53715.09, 55213.30, 0.000, 0.000, 0.000, 10:38:18.568
101, 63910.99, 40866.32, 31380.75, 22902.83, 46421.44, 64486.03, 53995.09, 55401.68, 0.000, 0.000, 0.000, 10:38:18.568
102, 63809.67, 40608.92, 31165.77, 22622.18, 46176.04, 64273.20, 53726.73, 55290.59, 0.164, 0.048, 0.984, 10:38:18.568
103, 63645.72, 40271.45, 30866.84, 22265.98, 45856.48, 63950.28, 53379.45, 55068.48, 0.000, 0.000, 0.000, 10:38:18.568
104, 63733.23, 40503.39, 31062.91, 22526.38, 46082.16, 64144.63, 53629.12, 55174.23, 0.000, 0.000, 0.000, 10:38:18.568
105, 63882.58, 40819.34, 31350.73, 22869.92, 46386.42, 64450.16, 53960.93, 55377.16, 0.000, 0.000, 0.000, 10:38:18.568
106, 63817.94, 40638.96, 31205.29, 22674.12, 46212.03, 64308.94, 53773.51, 55311.76, 0.000, 0.000, 0.000, 10:38:18.568
107, 63649.12, 40265.08, 30876.95, 22276.89, 45854.80, 63959.20, 53379.79, 55078.36, 0.000, 0.000, 0.000, 10:38:18.568
108, 63712.73, 40421.03, 31005.76, 22455.63, 46008.23, 64080.88, 53544.88, 55133.82, 0.000, 0.000, 0.000, 10:38:18.568
109, 63900.24, 40797.05, 31335.49, 22851.06, 46369.72, 64432.99, 53932.77, 55362.12, 0.000, 0.000, 0.000, 10:38:19.024
110, 63878.54, 40699.87, 31257.53, 22738.65, 46273.63, 64369.58, 53830.75, 55339.59, 0.000, 0.000, 0.000, 10:38:19.024
111, 63690.38, 40284.64, 30889.24, 22300.96, 45874.52, 63988.30, 53399.46, 55085.94, 0.000, 0.000, 0.000, 10:38:19.024
112, 63704.75, 40338.66, 30923.37, 22372.02, 45928.32, 64014.07, 53460.03, 55074.99, 0.162, 0.056, 0.978, 10:38:19.024
113, 63889.91, 40719.89, 31257.82, 22771.64, 46294.73, 64367.72, 53856.44, 55297.79, 0.000, 0.000, 0.000, 10:38:19.024
114, 63923.93, 40729.82, 31278.14, 22776.61, 46303.58, 64405.16, 53867.05, 55352.66, 0.000, 0.000, 0.000, 10:38:19.024
115, 63752.67, 40332.45, 30933.29, 22352.10, 45923.25, 64048.68, 53452.21, 55130.87, 0.000, 0.000, 0.000, 10:38:19.024
116, 63715.79, 40274.82, 30875.00, 22302.75, 45873.80, 63976.37, 53396.33, 55061.62, 0.000, 0.000, 0.000, 10:38:19.025
117, 63900.35, 40649.24, 31208.55, 22699.83, 46238.76, 64323.54, 53786.34, 55281.88, 0.000, 0.000, 0.000, 10:38:19.025
118, 63979.63, 40753.35, 31315.55, 22802.09, 46342.09, 64448.32, 53893.16, 55389.63, 0.000, 0.000, 0.000, 10:38:19.025
119, 63831.02, 40384.08, 30999.54, 22404.18, 45991.82, 64124.22, 53508.11, 55199.11, 0.000, 0.000, 0.000, 10:38:19.025
120, 63756.88, 40226.54, 30853.14, 22244.77, 45844.19, 63959.83, 53347.31, 55075.37, 0.000, 0.000, 0.000, 10:38:19.026
121, 63926.88, 40574.47, 31160.10, 22617.15, 46182.14, 64275.21, 53706.66, 55269.78, 0.000, 0.000, 0.000, 10:38:19.026
122, 64047.83, 40772.75, 31351.14, 22827.30, 46376.18, 64482.68, 53910.06, 55429.78, 0.156, 0.058, 0.978, 10:38:19.026
123, 63917.92, 40455.79, 31081.53, 22486.73, 46072.00, 64209.47, 53580.39, 55273.74, 0.000, 0.000, 0.000, 10:38:19.027
124, 63792.99, 40202.45, 30853.32, 22222.01, 45834.13, 63963.63, 53323.77, 55100.13, 0.000, 0.000, 0.000, 10:38:19.027
125, 63935.15, 40497.47, 31111.44, 22540.86, 46124.01, 64227.94, 53637.66, 55258.90, 0.000, 0.000, 0.000, 10:38:19.027
126, 64099.28, 40783.91, 31375.57, 22849.49, 46402.69, 64515.36, 53936.79, 55471.95, 0.000, 0.000, 0.000, 10:38:19.027
127, 64016.58, 40545.06, 31174.38, 22590.19, 46172.64, 64318.80, 53690.81, 55377.32, 0.000, 0.000, 0.000, 10:38:19.028
128, 63866.93, 40212.95, 30878.91, 22242.47, 45856.14, 64006.30, 53351.13, 55174.05, 0.000, 0.000, 0.000, 10:38:19.028
129, 63970.49, 40436.23, 31066.31, 22489.10, 46072.96, 64198.88, 53586.81, 55290.03, 0.000, 0.000, 0.000, 10:38:19.028
130, 64141.93, 40765.87, 31359.23, 22840.20, 46388.56, 64515.83, 53928.32, 55513.93, 0.000, 0.000, 0.000, 10:38:19.029
131, 64095.75, 40607.24, 31227.60, 22667.93, 46233.93, 64393.52, 53763.01, 55471.98, 0.000, 0.000, 0.000, 10:38:19.029
132, 63928.13, 40228.51, 30891.29, 22259.50, 45870.05, 64040.32, 53368.95, 55251.34, 0.160, 0.056, 0.980, 10:38:19.029
133, 63979.05, 40354.15, 30993.80, 22398.26, 45991.82, 64136.38, 53504.62, 55301.14, 0.000, 0.000, 0.000, 10:38:19.030
134, 64154.15, 40705.36, 31310.93, 22769.41, 46333.06, 64470.54, 53870.90, 55530.47, 0.000, 0.000, 0.000, 10:38:19.030
135, 64144.99, 40633.26, 31256.59, 22682.15, 46261.36, 64425.39, 53789.83, 55536.44, 0.000, 0.000, 0.000, 10:38:19.030
136, 63959.67, 40221.43, 30896.88, 22244.86, 45866.96, 64047.98, 53361.73, 55299.09, 0.000, 0.000, 0.000, 10:38:19.031
137, 63967.23, 40250.89, 30916.91, 22290.70, 45899.71, 64058.20, 53400.06, 55292.98, 0.000, 0.000, 0.000, 10:38:19.031
138, 64157.24, 40627.09, 31253.41, 22700.01, 46265.56, 64413.01, 53794.01, 55534.16, 0.000, 0.000, 0.000, 10:38:19.031
139, 64192.40, 40648.03, 31281.36, 22715.52, 46285.05, 64456.15, 53815.42, 55592.99, 0.000, 0.000, 0.000, 10:38:19.031
140, 64021.59, 40255.42, 30930.66, 22296.76, 45903.75, 64095.28, 53407.91, 55374.30, 0.000, 0.000, 0.000, 10:38:19.031
141, 63976.93, 40188.12, 30857.52, 22233.86, 45837.97, 64008.11, 53344.20, 55303.78, 0.160, 0.054, 0.984, 10:38:19.031
142, 64146.96, 40557.53, 31182.16, 22627.54, 46193.32, 64342.78, 53726.51, 55518.58, 0.000, 0.000, 0.000, 10:38:19.031
143, 64220.14, 40685.85, 31302.14, 22750.30, 46314.15, 64478.41, 53856.62, 55636.13, 0.000, 0.000, 0.000, 10:38:19.032
144, 64046.30, 40319.89, 30980.75, 22360.17, 45958.25, 64144.83, 53474.56, 55429.75, 0.000, 0.000, 0.000, 10:38:19.032
145, 63941.61, 40148.85, 30816.42, 22195.28, 45792.49, 63960.81, 53300.71, 55288.58, 0.000, 0.000, 0.000, 10:38:19.032
146, 64086.25, 40480.55, 31102.32, 22551.50, 46111.25, 64253.95, 53646.38, 55461.56, 0.000, 0.000, 0.000, 10:38:19.032
147, 64188.38, 40689.02, 31288.51, 22773.16, 46308.72, 64459.41, 53862.74, 55608.50, 0.000, 0.000, 0.000, 10:38:19.033
148, 64045.50, 40383.66, 31014.23, 22445.49, 46006.73, 64182.68, 53541.05, 55442.23, 0.000, 0.000, 0.000, 10:38:19.033
149, 63891.66, 40114.81, 30763.78, 22160.35, 45746.35, 63911.21, 53262.39, 55237.75, 0.000, 0.000, 0.000, 10:38:19.033
150, 64004.62, 40399.23, 31011.55, 22473.54, 46020.79, 64157.08, 53556.52, 55376.91, 0.000, 0.000, 0.000, 10:38:19.033
151, 64135.47, 40681.47, 31267.38, 22761.43, 46290.86, 64429.35, 53848.61, 55565.16, 0.162, 0.056, 0.982, 10:38:19.034
152, 64032.79, 40450.82, 31063.76, 22505.88, 46064.78, 64230.60, 53608.60, 55449.11, 0.000, 0.000, 0.000, 10:38:19.034
153, 63848.27, 40101.40, 30739.82, 22144.63, 45726.86, 63891.74, 53246.12, 55202.19, 0.000, 0.000, 0.000, 10:38:19.034
154, 63911.66, 40297.45, 30900.84, 22366.56, 45917.84, 64052.30, 53453.37, 55271.91, 0.000, 0.000, 0.000, 10:38:19.034
155, 64062.87, 40633.39, 31200.11, 22714.65, 46241.13, 64368.48, 53797.92, 55476.49, 0.000, 0.000, 0.000, 10:38:19.035
156, 63996.93, 40478.61, 31066.53, 22545.49, 46088.82, 64240.90, 53636.41, 55403.34, 0.000, 0.000, 0.000, 10:38:19.035
157, 63795.32, 40083.56, 30711.90, 22123.71, 45709.63, 63866.57, 53224.40, 55134.18, 0.000, 0.000, 0.000, 10:38:19.036
158, 63821.14, 40200.91, 30804.57, 22258.78, 45824.14, 63952.00, 53347.71, 55157.31, 0.000, 0.000, 0.000, 10:38:19.037
159, 63983.05, 40563.96, 31122.86, 22647.44, 46172.54, 64288.71, 53722.48, 55365.18, 0.000, 0.000, 0.000, 10:38:19.037
160, 63965.55, 40509.65, 31078.00, 22578.53, 46115.89, 64253.80, 53662.36, 55355.64, 0.000, 0.000, 0.000, 10:38:19.038
161, 63771.98, 40106.70, 30720.19, 22143.83, 45727.49, 63876.34, 53240.56, 55103.08, 0.162, 0.054, 0.978, 10:38:19.038
162, 63764.81, 40132.29, 30727.03, 22178.85, 45751.85, 63876.61, 53271.11, 55078.12, 0.000, 0.000, 0.000, 10:38:19.038
163, 63939.96, 40517.41, 31068.70, 22585.19, 46123.89, 64232.41, 53668.86, 55302.06, 0.000, 0.000, 0.000, 10:38:19.039
164, 63970.36, 40560.59, 31113.65, 22621.69, 46162.48, 64292.53, 53711.22, 55355.90, 0.000, 0.000, 0.000, 10:38:19.039
165, 63788.73, 40170.87, 30768.27, 22204.22, 45784.77, 63935.06, 53302.34, 55125.79, 0.000, 0.000, 0.000, 10:38:19.040
166, 63740.56, 40096.21, 30689.26, 22142.26, 45714.32, 63844.45, 53230.01, 55045.19, 0.000, 0.000, 0.000, 10:38:19.041
167, 63913.00, 40463.43, 31013.18, 22534.02, 46071.39, 64179.93, 53611.28, 55254.05, 0.000, 0.000, 0.000, 10:38:19.041
168, 64003.73, 40614.77, 31155.76, 22685.32, 46217.01, 64341.13, 53767.21, 55377.88, 0.000, 0.000, 0.000, 10:38:19.041
169, 63862.39, 40265.97, 30848.16, 22308.18, 45877.51, 64030.05, 53401.78, 55183.04, 0.000, 0.000, 0.000, 10:38:19.042
170, 63777.48, 40086.58, 30675.22, 22130.10, 45704.55, 63847.29, 53221.67, 55040.59, 0.000, 0.000, 0.000, 10:38:19.042
171, 63937.79, 40413.38, 30958.30, 22494.86, 46018.42, 64142.80, 53565.91, 55222.75, 0.160, 0.054, 0.982, 10:38:19.043
172, 64079.30, 40648.43, 31175.16, 22752.60, 46242.67, 64379.82, 53813.99, 55398.82, 0.000, 0.000, 0.000, 10:38:19.043
173, 63974.73, 40369.48, 30940.58, 22432.37, 45974.00, 64140.30, 53519.35, 55268.08, 0.000, 0.000, 0.000, 10:38:19.043
174, 63846.30, 40104.41, 30703.90, 22134.42, 45722.79, 63882.76, 53240.09, 55087.44, 0.000, 0.000, 0.000, 10:38:19.043
175, 63978.83, 40372.19, 30936.96, 22427.25, 45984.00, 64122.19, 53520.80, 55236.66, 0.000, 0.000, 0.000, 10:38:19.043
176, 64154.40, 40680.35, 31220.85, 22759.37, 46283.87, 64427.74, 53843.56, 55466.54, 0.000, 0.000, 0.000, 10:38:19.044
177, 64086.76, 40466.60, 31043.13, 22522.04, 46076.87, 64252.55, 53620.54, 55385.30, 0.000, 0.000, 0.000, 10:38:19.044
178, 63923.66, 40110.50, 30726.12, 22153.82, 45736.92, 63915.88, 53255.80, 55155.01, 0.000, 0.000, 0.000, 10:38:19.044
179, 64005.96, 40296.44, 30886.47, 22372.62, 45920.79, 64074.83, 53455.60, 55238.49, 0.000, 0.000, 0.000, 10:38:19.044
180, 64190.72, 40659.72, 31213.36, 22763.89, 46273.16, 64423.47, 53834.51, 55475.66, 0.158, 0.062, 0.984, 10:38:19.044
181, 64140.25, 40529.19, 31105.63, 22620.59, 46146.02, 64322.42, 53697.14, 55426.91, 0.000, 0.000, 0.000, 10:38:19.044
182, 63939.62, 40132.69, 30752.06, 22192.78, 45765.02, 63946.62, 53281.62, 55166.32, 0.000, 0.000, 0.000, 10:38:19.045
183, 63960.92, 40234.61, 30833.13, 22311.96, 45865.60, 64016.69, 53391.63, 55184.71, 0.000, 0.000, 0.000, 10:38:19.045
184, 64136.68, 40619.24, 31179.43, 22716.90, 46239.92, 64376.02, 53791.24, 55419.00, 0.000, 0.000, 0.000, 10:38:19.045
185, 64135.09, 40598.32, 31172.48, 22684.88, 46218.31, 64374.39, 53764.08, 55436.30, 0.000, 0.000, 0.000, 10:38:19.045
186, 63940.00, 40195.54, 30814.85, 22258.16, 45826.51, 63993.80, 53340.83, 55185.47, 0.000, 0.000, 0.000, 10:38:19.045
187, 63925.59, 40207.50, 30811.81, 22285.13, 45836.59, 63979.09, 53358.35, 55155.66, 0.000, 0.000, 0.000, 10:38:19.045
188, 64098.65, 40592.62, 31154.35, 22697.39, 46208.48, 64334.04, 53759.16, 55387.46, 0.000, 0.000, 0.000, 10:38:19.045
189, 64150.42, 40671.16, 31233.25, 22773.95, 46282.23, 64427.76, 53840.46, 55474.82, 0.000, 0.000, 0.000, 10:38:19.046
190, 63979.05, 40295.48, 30901.58, 22362.05, 45916.63, 64081.78, 53444.54, 55260.66, 0.160, 0.062, 0.980, 10:38:19.046
191, 63898.41, 40199.28, 30798.71, 22264.82, 45819.40, 63962.27, 53341.12, 55159.14, 0.000, 0.000, 0.000, 10:38:19.046
192, 64048.61, 40565.69, 31122.48, 22656.91, 46172.42, 64291.80, 53720.14, 55367.39, 0.000, 0.000, 0.000, 10:38:19.046
193, 64135.40, 40746.96, 31296.31, 22837.42, 46345.83, 64477.18, 53905.52, 55510.06, 0.000, 0.000, 0.000, 10:38:19.046
194, 63965.59, 40401.22, 30994.83, 22462.90, 46007.84, 64163.50, 53540.45, 55313.14, 0.000, 0.000, 0.000, 10:38:19.046
195, 63856.32, 40213.00, 30819.72, 22272.75, 45826.71, 63969.59, 53346.88, 55168.24, 0.000, 0.000, 0.000, 10:38:19.046
196, 63997.04, 40536.72, 31108.15, 22624.52, 46143.48, 64263.92, 53686.96, 55344.50, 0.000, 0.000, 0.000, 10:38:19.047
197, 64127.87, 40792.22, 31343.00, 22897.48, 46390.66, 64521.26, 53956.19, 55531.90, 0.000, 0.000, 0.000, 10:38:19.047
198, 64000.95, 40501.76, 31095.61, 22584.02, 46110.73, 64268.82, 53651.43, 55387.60, 0.000, 0.000, 0.000, 10:38:19.047
199, 63853.19, 40218.34, 30837.18, 22287.01, 45838.80, 63987.95, 53356.56, 55185.00, 0.000, 0.000, 0.000, 10:38:19.048
200, 63953.43, 40483.41, 31062.51, 22569.54, 46094.44, 64215.22, 53630.62, 55305.95, 0.164, 0.058, 0.978, 10:38:19.048
201, 64097.96, 40816.68, 31366.00, 22909.89, 46415.27, 64532.81, 53974.79, 55522.83, 0.000, 0.000, 0.000, 10:38:19.048
202, 64005.27, 40614.30, 31194.67, 22684.47, 46216.34, 64360.04, 53760.93, 55425.75, 0.000, 0.000, 0.000, 10:38:19.048
203, 63819.61, 40257.91, 30871.92, 22308.36, 45872.46, 64011.06, 53385.24, 55181.18, 0.000, 0.000, 0.000, 10:38:19.049
204, 63891.43, 40450.62, 31035.02, 22518.55, 46058.76, 64166.74, 53587.90, 55267.77, 0.000, 0.000, 0.000, 10:38:19.049
205, 64058.84, 40823.18, 31366.20, 22923.70, 46414.69, 64513.35, 53976.98, 55501.04, 0.000, 0.000, 0.000, 10:38:19.049
206, 64019.84, 40718.68, 31275.10, 22806.82, 46306.53, 64431.00, 53866.05, 55463.71, 0.000, 0.000, 0.000, 10:38:19.050
207, 63823.71, 40321.79, 30913.20, 22383.93, 45919.09, 64050.40, 53450.15, 55204.54, 0.000, 0.000, 0.000, 10:38:19.050
208, 63845.07, 40420.60, 30986.54, 22492.85, 46012.05, 64113.20, 53553.13, 55225.59, 0.000, 0.000, 0.000, 10:38:19.050
209, 64020.47, 40815.29, 31339.29, 22912.41, 46391.69, 64476.49, 53959.79, 55460.15, 0.000, 0.000, 0.000, 10:38:19.050
210, 64036.98, 40811.29, 31344.32, 22896.97, 46384.85, 64492.56, 53953.60, 55491.29, 0.160, 0.058, 0.976, 10:38:19.050
211, 63849.61, 40403.14, 30982.78, 22461.78, 45992.04, 64114.61, 53531.15, 55242.25, 0.000, 0.000, 0.000, 10:38:19.051
212, 63822.52, 40391.37, 30961.35, 22464.46, 45981.85, 64079.30, 53525.70, 55196.29, 0.000, 0.000, 0.000, 10:38:19.051
213, 63994.92, 40776.82, 31303.91, 22878.93, 46353.47, 64432.70, 53929.08, 55424.75, 0.000, 0.000, 0.000, 10:38:19.051
214, 64043.60, 40860.13, 31386.16, 22966.44, 46429.85, 64530.73, 54015.58, 55513.02, 0.000, 0.000, 0.000, 10:38:19.051
215, 63867.61, 40463.34, 31038.53, 22552.22, 46046.83, 64170.16, 53601.07, 55287.02, 0.000, 0.000, 0.000, 10:38:19.051
216, 63798.63, 40342.19, 30917.49, 22428.52, 45931.52, 64035.24, 53480.17, 55177.63, 0.000, 0.000, 0.000, 10:38:19.052
217, 63946.04, 40690.79, 31225.30, 22794.00, 46270.14, 64350.65, 53842.58, 55371.44, 0.000, 0.000, 0.000, 10:38:19.052
218, 64034.88, 40870.23, 31391.59, 22972.68, 46441.52, 64535.30, 54027.23, 55508.30, 0.000, 0.000, 0.000, 10:38:19.052
219, 63879.18, 40515.96, 31079.85, 22584.07, 46096.65, 64219.75, 53654.71, 55309.08, 0.156, 0.056, 0.976, 10:38:19.052
220, 63752.27, 40279.65, 30862.35, 22350.20, 45872.28, 63983.34, 53413.63, 55133.88, 0.000, 0.000, 0.000, 10:38:19.052
221, 63890.85, 40582.54, 31130.37, 22677.36, 46168.31, 64255.30, 53729.52, 55302.86, 0.000, 0.000, 0.000, 10:38:19.052
222, 64038.86, 40855.93, 31380.80, 22959.62, 46431.90, 64526.27, 54013.61, 55500.59, 0.000, 0.000, 0.000, 10:38:19.052
223, 63913.92, 40555.29, 31123.93, 22632.01, 46141.38, 64266.25, 53698.23, 55344.84, 0.000, 0.000, 0.000, 10:38:19.053
224, 63751.98, 40232.42, 30832.55, 22300.42, 45833.08, 63953.50, 53366.33, 55122.77, 0.000, 0.000, 0.000, 10:38:19.053
225, 63849.68, 40473.40, 31038.06, 22566.92, 46067.57, 64160.59, 53616.96, 55246.36, 0.000, 0.000, 0.000, 10:38:19.053
226, 64016.64, 40809.72, 31339.92, 22923.97, 46391.67, 64483.80, 53967.84, 55480.22, 0.000, 0.000, 0.000, 10:38:19.053
227, 63934.17, 40599.42, 31161.95, 22689.32, 46187.53, 64309.18, 53748.99, 55390.71, 0.000, 0.000, 0.000, 10:38:19.053
228, 63744.87, 40219.71, 30820.33, 22282.74, 45822.33, 63945.59, 53351.78, 55144.16, 0.000, 0.000, 0.000, 10:38:19.053
229, 63795.03, 40375.05, 30949.50, 22453.96, 45973.00, 64069.22, 53513.29, 55205.92, 0.158, 0.056, 0.974, 10:38:19.501
230, 63967.41, 40750.56, 31285.71, 22856.20, 46333.82, 64421.37, 53902.30, 55447.81, 0.000, 0.000, 0.000, 10:38:19.501
231, 63931.24, 40647.45, 31206.95, 22738.54, 46231.96, 64345.84, 53789.34, 55421.53, 0.000, 0.000, 0.000, 10:38:19.502
232, 63717.38, 40221.27, 30827.44, 22284.26, 45821.50, 63943.40, 53344.87, 55148.75, 0.000, 0.000, 0.000, 10:38:19.502
233, 63710.83, 40269.57, 30857.72, 22343.21, 45867.75, 63963.31, 53400.11, 55135.56, 0.000, 0.000, 0.000, 10:38:19.502
234, 63886.54, 40654.60, 31202.74, 22757.74, 46240.46, 64320.29, 53802.66, 55367.06, 0.000, 0.000, 0.000, 10:38:19.502
235, 63910.77, 40660.53, 31218.43, 22758.75, 46242.81, 64349.02, 53810.91, 55414.18, 0.000, 0.000, 0.000, 10:38:19.502
236, 63699.32, 40229.38, 30834.97, 22301.18, 45826.35, 63949.25, 53361.37, 55145.11, 0.000, 0.000, 0.000, 10:38:19.502
237, 63640.42, 40182.76, 30781.62, 22259.28, 45782.52, 63878.54, 53315.23, 55065.44, 0.000, 0.000, 0.000, 10:38:19.502
238, 63790.18, 40563.68, 31115.91, 22663.75, 46148.06, 64219.46, 53709.30, 55276.64, 0.000, 0.000, 0.000, 10:38:19.502
239, 63842.86, 40676.33, 31219.82, 22776.31, 46251.08, 64339.63, 53822.37, 55375.86, 0.160, 0.054, 0.976, 10:38:19.502
240, 63654.70, 40273.80, 30861.25, 22337.17, 45860.59, 63972.95, 53402.18, 55134.87, 0.000, 0.000, 0.000, 10:38:19.503
241, 63559.17, 40117.76, 30708.39, 22179.30, 45711.06, 63806.27, 53244.40, 54996.22, 0.000, 0.000, 0.000, 10:38:19.503
242, 63717.13, 40469.46, 31017.00, 22559.46, 46052.53, 64124.05, 53609.07, 55193.14, 0.000, 0.000, 0.000, 10:38:19.503
243, 63835.53, 40681.49, 31212.78, 22780.90, 46256.55, 64344.64, 53828.16, 55362.45, 0.000, 0.000, 0.000, 10:38:19.503
244, 63687.07, 40331.40, 30908.95, 22389.99, 45918.21, 64034.91, 53460.36, 55172.66, 0.000, 0.000, 0.000, 10:38:19.503
245, 63555.51, 40084.34, 30682.78, 22133.32, 45683.01, 63787.38, 53206.00, 54999.17, 0.000, 0.000, 0.000, 10:38:19.503
246, 63675.40, 40367.99, 30933.05, 22444.48, 45960.80, 64041.46, 53505.83, 55153.98, 0.000, 0.000, 0.000, 10:38:19.503
247, 63831.82, 40662.76, 31204.76, 22759.13, 46246.14, 64331.98, 53811.53, 55371.95, 0.000, 0.000, 0.000, 10:38:19.503
248, 63716.75, 40379.54, 30964.41, 22452.46, 45971.82, 64086.50, 53511.21, 55226.62, 0.000, 0.000, 0.000, 10:38:19.543
249, 63542.63, 40038.30, 30652.38, 22088.35, 45643.00, 63753.32, 53157.09, 54990.39, 0.158, 0.058, 0.978, 10:38:19.543
250, 63622.32, 40252.20, 30833.36, 22316.32, 45852.32, 63935.46, 53381.46, 55083.73, 0.000, 0.000, 0.000, 10:38:19.544
251, 63790.34, 40604.87, 31149.88, 22689.88, 46194.33, 64274.50, 53749.98, 55314.38, 0.000, 0.000, 0.000, 10:38:19.544
252, 63704.13, 40401.87, 30978.71, 22474.75, 45999.89, 64109.61, 53538.37, 55217.86, 0.000, 0.000, 0.000, 10:38:19.544
253, 63505.89, 40014.52, 30630.88, 22063.21, 45627.48, 63737.99, 53134.95, 54951.05, 0.000, 0.000, 0.000, 10:38:19.544
254, 63549.23, 40162.60, 30752.24, 22221.77, 45771.45, 63854.13, 53290.09, 54996.64, 0.000, 0.000, 0.000, 10:38:19.544
255, 63722.27, 40554.00, 31101.40, 22634.16, 46148.62, 64222.30, 53696.46, 55241.11, 0.000, 0.000, 0.000, 10:38:19.544
0, 63695.18, 40467.59, 31038.37, 22539.16, 46062.63, 64165.80, 53604.40, 55232.19, 0.000, 0.000, 0.000, 10:38:19.544
1, 63486.66, 40049.12, 30665.99, 22091.03, 45659.45, 63773.14, 53168.27, 54972.44, 0.000, 0.000, 0.000, 10:38:19.544
2, 63478.48, 40090.71, 30695.20, 22149.71, 45702.41, 63789.48, 53215.34, 54963.50, 0.000, 0.000, 0.000, 10:38:19.545
3, 63652.09, 40479.45, 31041.74, 22568.47, 46076.69, 64148.99, 53618.77, 55199.35, 0.162, 0.058, 0.984, 10:38:19.545
4, 63686.06, 40504.33, 31074.82, 22576.96, 46095.69, 64194.99, 53639.96, 55262.41, 0.000, 0.000, 0.000, 10:38:19.545
5, 63502.15, 40082.78, 30702.27, 22118.82, 45688.89, 63809.18, 53201.91, 55018.91, 0.000, 0.000, 0.000, 10:38:19.545
6, 63475.09, 40034.12, 30646.32, 22078.45, 45642.66, 63743.95, 53156.05, 54959.72, 0.000, 0.000, 0.000, 10:38:19.545
7, 63651.75, 40410.79, 30976.05, 22483.78, 46006.28, 64089.18, 53547.91, 55182.39, 0.000, 0.000, 0.000, 10:38:19.545
8, 63741.50, 40544.54, 31102.23, 22620.66, 46133.51, 64238.09, 53686.18, 55309.32, 0.000, 0.000, 0.000, 10:38:19.545
9, 63572.41, 40156.23, 30762.77, 22198.21, 45760.39, 63888.35, 53280.50, 55089.07, 0.000, 0.000, 0.000, 10:38:19.546
10, 63479.69, 39990.58, 30607.12, 22038.35, 45603.79, 63714.90, 53118.72, 54952.57, 0.000, 0.000, 0.000, 10:38:19.546
11, 63639.17, 40338.44, 30911.37, 22416.29, 45941.19, 64029.32, 53481.33, 55138.53, 0.000, 0.000, 0.000, 10:38:19.546
12, 63768.00, 40571.72, 31128.89, 22654.63, 46164.75, 64265.38, 53719.44, 55310.53, 0.168, 0.056, 0.978, 10:38:19.546
13, 63631.44, 40237.43, 30839.35, 22294.61, 45841.73, 63968.50, 53368.61, 55129.17, 0.000, 0.000, 0.000, 10:38:19.546
14, 63500.12, 39979.83, 30595.51, 22031.80, 45594.03, 63709.20, 53105.39, 54938.75, 0.000, 0.000, 0.000, 10:38:19.546
15, 63629.45, 40274.33, 30852.65, 22348.66, 45881.60, 63968.61, 53410.81, 55094.54, 0.000, 0.000, 0.000, 10:38:19.546
16, 63799.54, 40597.65, 31149.12, 22686.80, 46192.96, 64284.26, 53742.04, 55318.71, 0.000, 0.000, 0.000, 10:38:19.546
17, 63705.31, 40348.25, 30939.39, 22404.05, 45951.12, 64071.77, 53474.80, 55199.84, 0.000, 0.000, 0.000, 10:38:19.546
18, 63545.85, 40021.16, 30636.71, 22066.58, 45635.55, 63752.92, 53136.55, 54985.25, 0.000, 0.000, 0.000, 10:38:19.547
19, 63641.61, 40239.09, 30820.62, 22312.99, 45846.60, 63938.35, 53361.66, 55089.38, 0.000, 0.000, 0.000, 10:38:19.547
20, 63830.34, 40612.09, 31158.87, 22703.81, 46206.95, 64296.67, 53749.93, 55341.89, 0.000, 0.000, 0.000, 10:38:19.547
21, 63772.50, 40440.07, 31016.58, 22502.30, 46040.21, 64159.63, 53570.31, 55277.76, 0.000, 0.000, 0.000, 10:38:19.547
22, 63592.95, 40059.33, 30674.48, 22092.96, 45673.51, 63797.91, 53176.09, 55034.15, 0.164, 0.048, 0.978, 10:38:19.547
23, 63640.51, 40193.38, 30785.64, 22245.71, 45803.53, 63902.16, 53317.54, 55078.30, 0.000, 0.000, 0.000, 10:38:19.547
24, 63838.79, 40603.64, 31154.44, 22680.40, 46198.77, 64288.24, 53747.70, 55338.67, 0.000, 0.000, 0.000, 10:38:19.547
25, 63826.52, 40532.65, 31103.05, 22603.04, 46128.72, 64249.11, 53674.38, 55343.30, 0.000, 0.000, 0.000, 10:38:19.547
26, 63631.64, 40117.74, 30731.61, 22161.60, 45728.07, 63861.64, 53242.50, 55089.79, 0.000, 0.000, 0.000, 10:38:19.547
27, 63631.77, 40149.61, 30753.00, 22211.33, 45760.95, 63869.13, 53278.91, 55074.20, 0.000, 0.000, 0.000, 10:38:19.547
28, 63824.27, 40557.53, 31118.16, 22653.04, 46155.57, 64246.60, 53703.35, 55324.03, 0.000, 0.000, 0.000, 10:38:19.548
29, 63873.35, 40607.98, 31176.41, 22687.98, 46201.30, 64316.96, 53752.90, 55400.16, 0.000, 0.000, 0.000, 10:38:19.548
30, 63684.77, 40201.67, 30817.53, 22243.99, 45808.54, 63941.25, 53324.20, 55150.22, 0.000, 0.000, 0.000, 10:38:19.548
31, 63641.70, 40142.84, 30753.45, 22193.96, 45751.89, 63861.52, 53265.23, 55072.86, 0.000, 0.000, 0.000, 10:38:19.548
32, 63832.63, 40542.82, 31105.60, 22624.12, 46137.82, 64226.04, 53678.70, 55302.53, 0.162, 0.052, 0.982, 10:38:19.548
33, 63932.02, 40701.12, 31256.97, 22784.59, 46289.52, 64396.07, 53839.96, 55439.95, 0.000, 0.000, 0.000, 10:38:19.548
34, 63764.70, 40325.47, 30929.31, 22372.82, 45927.91, 64057.93, 53447.22, 55226.98, 0.000, 0.000, 0.000, 10:38:19.548
35, 63667.58, 40154.62, 30767.02, 22206.64, 45763.79, 63878.33, 53276.25, 55089.88, 0.000, 0.000, 0.000, 10:38:19.548
36, 63825.92, 40498.41, 31066.22, 22580.69, 46095.58, 64184.51, 53632.59, 55278.61, 0.000, 0.000, 0.000, 10:38:19.548
37, 63967.18, 40758.58, 31303.46, 22847.97, 46343.30, 64442.87, 53899.66, 55467.26, 0.000, 0.000, 0.000, 10:38:19.548
38, 63838.21, 40447.89, 31039.60, 22505.68, 46044.55, 64170.96, 53575.25, 55307.76, 0.000, 0.000, 0.000, 10:38:19.549
39, 63706.22, 40187.27, 30802.16, 22234.06, 45796.24, 63911.91, 53308.30, 55122.44, 0.000, 0.000, 0.000, 10:38:19.549
40, 63836.36, 40473.02, 31047.53, 22540.62, 46071.57, 64163.03, 53607.15, 55272.71, 0.000, 0.000, 0.000, 10:38:19.549
41, 64001.31, 40800.67, 31344.23, 22881.84, 46385.70, 64480.98, 53946.96, 55498.02, 0.000, 0.000, 0.000, 10:38:19.549
42, 63890.94, 40543.52, 31120.20, 22604.34, 46134.20, 64258.22, 53675.39, 55367.66, 0.160, 0.054, 0.982, 10:38:19.549
43, 63724.00, 40202.00, 30803.12, 22256.21, 45802.14, 63927.53, 53326.54, 55139.70, 0.000, 0.000, 0.000, 10:38:19.549
44, 63803.75, 40400.89, 30967.74, 22477.72, 45993.07, 64092.71, 53537.14, 55227.31, 0.000, 0.000, 0.000, 10:38:19.549
45, 63985.89, 40783.35, 31310.55, 22886.58, 46359.66, 64454.96, 53933.62, 55473.38, 0.000, 0.000, 0.000, 10:38:19.550
46, 63934.46, 40625.93, 31183.43, 22711.38, 46206.80, 64331.67, 53766.65, 55417.59, 0.000, 0.000, 0.000, 10:38:19.550
47, 63737.56, 40227.84, 30826.63, 22282.70, 45822.62, 63953.57, 53352.79, 55161.29, 0.000, 0.000, 0.000, 10:38:19.550
48, 63778.58, 40349.08, 30924.91, 22410.46, 45939.38, 64042.15, 53478.96, 55197.88, 0.000, 0.000, 0.000, 10:38:19.550
49, 63979.12, 40769.94, 31299.84, 22858.75, 46342.79, 64434.22, 53918.51, 55464.80, 0.000, 0.000, 0.000, 10:38:19.550
50, 63974.38, 40715.55, 31261.75, 22792.70, 46287.00, 64408.07, 53856.71, 55472.69, 0.000, 0.000, 0.000, 10:38:19.550
51, 63772.90, 40294.85, 30884.10, 22353.64, 45880.17, 64015.24, 53418.93, 55211.00, 0.154, 0.054, 0.978, 10:38:19.550
52, 63762.77, 40311.35, 30893.55, 22386.37, 45898.28, 64009.79, 53443.29, 55185.74, 0.000, 0.000, 0.000, 10:38:19.550
53, 63951.56, 40721.17, 31259.94, 22819.21, 46293.84, 64383.62, 53868.93, 55425.55, 0.000, 0.000, 0.000, 10:38:19.550
54, 64002.77, 40783.42, 31331.36, 22871.40, 46352.24, 64463.30, 53928.30, 55503.87, 0.000, 0.000, 0.000, 10:38:19.551
55, 63825.02, 40383.05, 30977.66, 22440.57, 45966.20, 64096.20, 53509.27, 55274.01, 0.000, 0.000, 0.000, 10:38:19.551
56, 63753.92, 40280.97, 30879.69, 22354.40, 45869.87, 63978.29, 53408.35, 55170.27, 0.000, 0.000, 0.000, 10:38:19.551
57, 63931.80, 40669.13, 31223.40, 22767.13, 46245.13, 64328.65, 53813.25, 55391.44, 0.000, 0.000, 0.000, 10:38:19.551
58, 64020.27, 40830.91, 31373.35, 22924.82, 46398.22, 64497.95, 53976.82, 55523.99, 0.000, 0.000, 0.000, 10:38:19.551
59, 63846.59, 40446.75, 31032.56, 22507.60, 46025.21, 64148.92, 53572.17, 55304.11, 0.000, 0.000, 0.000, 10:38:19.551
60, 63745.90, 40255.54, 30847.02, 22315.22, 45840.50, 63951.60, 53378.42, 55156.64, 0.000, 0.000, 0.000, 10:38:19.551
61, 63887.30, 40584.35, 31131.35, 22673.09, 46158.07, 64244.41, 53721.61, 55327.94, 0.158, 0.060, 0.980, 10:38:19.552
62, 64032.49, 40861.34, 31384.11, 22962.39, 46422.02, 64518.62, 54006.02, 55528.84, 0.000, 0.000, 0.000, 10:38:19.552
63, 63896.37, 40542.20, 31108.13, 22612.48, 46113.39, 64238.44, 53669.38, 55356.15, 0.000, 0.000, 0.000, 10:38:19.552
64, 63746.12, 40255.00, 30843.28, 22307.24, 45838.53, 63956.39, 53374.76, 55145.42, 0.000, 0.000, 0.000, 10:38:19.552
65, 63854.53, 40513.95, 31066.91, 22592.88, 46090.32, 64183.28, 53647.89, 55275.28, 0.000, 0.000, 0.000, 10:38:19.553
66, 64026.28, 40857.16, 31377.47, 22957.10, 46420.17, 64516.70, 54003.98, 55511.81, 0.000, 0.000, 0.000, 10:38:19.553
67, 63926.75, 40615.09, 31171.72, 22685.21, 46186.46, 64311.80, 53746.11, 55397.48, 0.000, 0.000, 0.000, 10:38:19.553
68, 63752.22, 40263.54, 30853.36, 22312.92, 45850.04, 63974.13, 53383.95, 55166.59, 0.000, 0.000, 0.000, 10:38:19.553
69, 63802.79, 40428.00, 30990.22, 22516.83, 46009.81, 64106.75, 53561.02, 55229.77, 0.000, 0.000, 0.000, 10:38:19.553
70, 63980.05, 40806.89, 31329.97, 22936.06, 46372.11, 64464.60, 53962.50, 55474.82, 0.000, 0.000, 0.000, 10:38:19.553
71, 63929.14, 40662.76, 31214.50, 22758.95, 46232.17, 64353.51, 53804.96, 55427.25, 0.164, 0.054, 0.976, 10:38:19.554
72, 63748.54, 40283.86, 30873.35, 22327.85, 45867.63, 63995.48, 53403.48, 55183.19, 0.000, 0.000, 0.000, 10:38:19.554
73, 63774.09, 40371.52, 30943.53, 22439.94, 45952.39, 64054.66, 53500.24, 55195.57, 0.000, 0.000, 0.000, 10:38:19.555
74, 63972.01, 40796.58, 31321.88, 22889.57, 46361.23, 64447.54, 53938.54, 55451.23, 0.000, 0.000, 0.000, 10:38:19.555
75, 63978.94, 40761.78, 31304.58, 22851.30, 46326.52, 64439.65, 53898.93, 55472.73, 0.000, 0.000, 0.000, 10:38:19.555
76, 63789.29, 40343.85, 30933.67, 22412.52, 45924.43, 64052.41, 53467.02, 55215.69, 0.000, 0.000, 0.000, 10:38:19.555
77, 63769.55, 40335.82, 30921.20, 22403.31, 45919.49, 64022.95, 53461.46, 55172.66, 0.000, 0.000, 0.000, 10:38:19.555
78, 63960.79, 40748.21, 31290.90, 22854.61, 46320.39, 64403.29, 53895.91, 55423.18, 0.000, 0.000, 0.000, 10:38:19.555
79, 64014.68, 40817.26, 31362.34, 22922.23, 46384.56, 64494.13, 53965.67, 55505.57, 0.000, 0.000, 0.000, 10:38:19.555
80, 63836.82, 40415.11, 31006.58, 22485.88, 45997.83, 64128.29, 53542.95, 55273.40, 0.000, 0.000, 0.000, 10:38:19.555
81, 63765.59, 40303.55, 30893.22, 22368.69, 45892.73, 64003.19, 53428.69, 55175.91, 0.162, 0.054, 0.972, 10:38:19.555
82, 63934.21, 40683.84, 31220.33, 22781.72, 46259.48, 64344.43, 53823.54, 55392.34, 0.000, 0.000, 0.000, 10:38:19.555
83, 64050.46, 40884.04, 31405.74, 22987.58, 46449.36, 64552.75, 54027.59, 55554.68, 0.000, 0.000, 0.000, 10:38:19.555
84, 63904.66, 40529.59, 31094.76, 22585.52, 46105.57, 64235.18, 53651.38, 55362.14, 0.000, 0.000, 0.000, 10:38:19.555
85, 63791.96, 40315.08, 30894.22, 22367.39, 45899.48, 64017.14, 53432.83, 55197.88, 0.000, 0.000, 0.000, 10:38:19.556
86, 63925.03, 40627.85, 31166.24, 22709.13, 46202.13, 64294.59, 53765.22, 55359.61, 0.000, 0.000, 0.000, 10:38:19.556
87, 64072.97, 40909.52, 31423.98, 23005.26, 46471.93, 64574.75, 54059.23, 55563.84, 0.000, 0.000, 0.000, 10:38:19.556
88, 63939.27, 40592.87, 31154.84, 22665.54, 46167.57, 64298.93, 53725.79, 55400.68, 0.000, 0.000, 0.000, 10:38:19.556
89, 63788.55, 40294.45, 30883.20, 22357.73, 45882.41, 64007.59, 53420.29, 55194.82, 0.000, 0.000, 0.000, 10:38:19.556
90, 63900.06, 40555.38, 31106.05, 22639.46, 46136.12, 64232.68, 53695.37, 55327.74, 0.160, 0.058, 0.974, 10:38:19.556
91, 64066.38, 40903.71, 31419.69, 23008.08, 46470.57, 64568.22, 54056.66, 55558.48, 0.000, 0.000, 0.000, 10:38:19.556
92, 63979.81, 40677.91, 31229.59, 22755.88, 46251.21, 64378.86, 53813.86, 55451.93, 0.000, 0.000, 0.000, 10:38:19.557
93, 63814.43, 40324.54, 30914.29, 22381.34, 45912.14, 64040.07, 53445.50, 55223.63, 0.000, 0.000, 0.000, 10:38:19.983
94, 63874.13, 40488.35, 31052.92, 22569.32, 46073.70, 64172.10, 53619.31, 55292.58, 0.000, 0.000, 0.000, 10:38:19.984
95, 64061.95, 40887.98, 31412.16, 23003.21, 46459.73, 64551.28, 54038.96, 55548.64, 0.000, 0.000, 0.000, 10:38:19.984
96, 64016.96, 40751.54, 31304.78, 22846.86, 46328.01, 64449.42, 53891.73, 55499.63, 0.000, 0.000, 0.000, 10:38:19.984
97, 63836.82, 40358.66, 30956.00, 22429.39, 45951.96, 64082.89, 53484.48, 55261.31, 0.000, 0.000, 0.000, 10:38:19.984
98, 63856.61, 40431.24, 31008.62, 22511.92, 46022.73, 64127.87, 53563.85, 55264.75, 0.000, 0.000, 0.000, 10:38:19.985
99, 64055.16, 40857.51, 31383.30, 22963.58, 46430.50, 64521.17, 54009.37, 55523.32, 0.000, 0.000, 0.000, 10:38:19.985
100, 64068.55, 40837.78, 31373.91, 22930.27, 46407.83, 64528.19, 53982.46, 55548.31, 0.162, 0.056, 0.974, 10:38:19.985
101, 63879.36, 40427.91, 31005.02, 22486.88, 46011.13, 64146.00, 53550.60, 55295.87, 0.000, 0.000, 0.000, 10:38:19.986
102, 63843.40, 40395.66, 30960.21, 22457.45, 45979.30, 64089.31, 53517.32, 55228.30, 0.000, 0.000, 0.000, 10:38:19.987
103, 64022.30, 40802.68, 31316.78, 22894.94, 46369.72, 64457.82, 53940.37, 55461.79, 0.000, 0.000, 0.000, 10:38:19.987
104, 64091.03, 40899.85, 31415.35, 22989.64, 46460.96, 64571.04, 54035.34, 55563.95, 0.000, 0.000, 0.000, 10:38:19.987
105, 63921.36, 40507.42, 31073.10, 22571.21, 46085.43, 64215.80, 53626.64, 55343.54, 0.000, 0.000, 0.000, 10:38:19.987
106, 63845.25, 40375.81, 30947.98, 22440.84, 45962.58, 64075.01, 53495.46, 55231.81, 0.000, 0.000, 0.000, 10:38:19.987
107, 64013.11, 40750.47, 31273.78, 22845.96, 46323.95, 64411.42, 53887.62, 55443.16, 0.000, 0.000, 0.000, 10:38:19.987
108, 64130.24, 40958.86, 31468.89, 23062.37, 46521.06, 64625.75, 54098.06, 55601.59, 0.000, 0.000, 0.000, 10:38:19.987
109, 63983.34, 40607.04, 31165.21, 22675.15, 46182.35, 64315.02, 53731.45, 55414.06, 0.000, 0.000, 0.000, 10:38:19.987
110, 63865.32, 40379.30, 30956.58, 22438.78, 45965.22, 64083.97, 53498.36, 55244.95, 0.160, 0.054, 0.974, 10:38:19.987
111, 63990.54, 40689.02, 31223.44, 22775.80, 46264.09, 64353.93, 53821.43, 55398.06, 0.000, 0.000, 0.000, 10:38:19.987
112, 64147.02, 40989.84, 31494.52, 23087.54, 46551.33, 64650.61, 54132.88, 55614.78, 0.000, 0.000, 0.000, 10:38:19.987
113, 64026.75, 40690.34, 31237.01, 22762.57, 46264.53, 64392.31, 53817.03, 55464.45, 0.000, 0.000, 0.000, 10:38:19.987
114, 63882.18, 40385.80, 30961.41, 22446.60, 45973.58, 64096.51, 53504.22, 55256.50, 0.000, 0.000, 0.000, 10:38:19.987
115, 63976.26, 40624.25, 31167.92, 22706.60, 46204.47, 64297.54, 53753.21, 55361.38, 0.000, 0.000, 0.000, 10:38:19.987
116, 64151.76, 40990.59, 31497.47, 23094.58, 46554.59, 64649.16, 54135.41, 55604.95, 0.000, 0.000, 0.000, 10:38:19.988
117, 64073.20, 40774.63, 31319.02, 22853.59, 46346.63, 64473.38, 53908.56, 55512.77, 0.000, 0.000, 0.000, 10:38:19.988
118, 63900.68, 40404.24, 30987.63, 22465.04, 45993.05, 64123.91, 53526.39, 55276.60, 0.000, 0.000, 0.000, 10:38:19.988
119, 63936.27, 40535.80, 31091.07, 22619.38, 46121.06, 64222.10, 53665.29, 55305.84, 0.000, 0.000, 0.000, 10:38:19.988
120, 64125.61, 40944.13, 31454.07, 23054.35, 46511.12, 64603.78, 54091.71, 55563.06, 0.156, 0.056, 0.970, 10:38:19.988
121, 64091.84, 40822.11, 31360.37, 22912.33, 46391.85, 64515.00, 53962.72, 55531.48, 0.000, 0.000, 0.000, 10:38:19.988
122, 63909.45, 40420.74, 31004.53, 22490.12, 46006.95, 64141.28, 53546.69, 55292.27, 0.000, 0.000, 0.000, 10:38:19.988
123, 63903.84, 40465.26, 31032.58, 22535.25, 46050.25, 64159.56, 53595.59, 55278.77, 0.000, 0.000, 0.000, 10:38:19.988
124, 64093.94, 40889.88, 31409.97, 22991.12, 46458.30, 64552.13, 54039.34, 55533.36, 0.000, 0.000, 0.000, 10:38:19.992
125, 64107.91, 40881.43, 31410.75, 22972.70, 46447.17, 64568.46, 54023.70, 55568.67, 0.000, 0.000, 0.000, 10:38:19.992
126, 63919.91, 40466.51, 31039.75, 22527.45, 46047.52, 64186.30, 53591.84, 55329.08, 0.000, 0.000, 0.000, 10:38:19.992
127, 63872.81, 40404.91, 30972.43, 22474.97, 45989.05, 64105.09, 53532.07, 55251.86, 0.000, 0.000, 0.000, 10:38:19.992
128, 64054.87, 40813.68, 31326.57, 22916.19, 46382.75, 64476.53, 53959.99, 55488.09, 0.000, 0.000, 0.000, 10:38:19.992
129, 64109.79, 40908.68, 31417.63, 23004.55, 46470.88, 64589.25, 54053.09, 55582.86, 0.000, 0.000, 0.000, 10:38:19.992
130, 63919.93, 40499.77, 31057.70, 22567.42, 46077.47, 64219.24, 53627.29, 55346.00, 0.152, 0.052, 0.976, 10:38:19.992
131, 63823.59, 40336.20, 30909.24, 22402.79, 45924.14, 64047.83, 53461.75, 55207.55, 0.000, 0.000, 0.000, 10:38:19.993
132, 63970.18, 40687.64, 31220.16, 22786.37, 46264.40, 64361.71, 53832.23, 55396.02, 0.000, 0.000, 0.000, 10:38:19.993
133, 64092.53, 40911.92, 31429.48, 23018.88, 46478.53, 64592.88, 54064.40, 55572.78, 0.000, 0.000, 0.000, 10:38:19.993
134, 63951.38, 40571.90, 31135.78, 22650.77, 46152.71, 64294.72, 53708.47, 55396.43, 0.000, 0.000, 0.000, 10:38:19.993
135, 63814.70, 40314.48, 30898.87, 22387.48, 45906.30, 64039.36, 53441.32, 55208.88, 0.000, 0.000, 0.000, 10:38:19.993
136, 63932.58, 40609.77, 31150.24, 22702.91, 46191.29, 64294.34, 53748.23, 55352.55, 0.000, 0.000, 0.000, 10:38:19.993
137, 64091.37, 40926.91, 31438.51, 23015.61, 46495.14, 64603.42, 54073.54, 55568.13, 0.000, 0.000, 0.000, 10:38:19.993
138, 63966.15, 40631.34, 31185.55, 22694.20, 46209.70, 64346.98, 53761.75, 55415.61, 0.000, 0.000, 0.000, 10:38:19.993
139, 63800.44, 40293.73, 30882.15, 22350.96, 45886.41, 64021.34, 53418.03, 55191.44, 0.152, 0.052, 0.982, 10:38:19.993
140, 63882.94, 40513.50, 31070.98, 22600.50, 46100.32, 64203.39, 53647.00, 55287.62, 0.000, 0.000, 0.000, 10:38:19.994
141, 64059.49, 40885.95, 31401.50, 22990.15, 46456.78, 64559.19, 54032.99, 55527.90, 0.000, 0.000, 0.000, 10:38:19.994
142, 63983.97, 40680.87, 31224.80, 22754.92, 46258.70, 64391.84, 53814.80, 55435.52, 0.000, 0.000, 0.000, 10:38:19.994
143, 63808.73, 40303.86, 30887.79, 22358.09, 45896.69, 64034.57, 53422.70, 55196.16, 0.000, 0.000, 0.000, 10:38:19.994
144, 63848.16, 40432.16, 30991.99, 22501.05, 46022.33, 64129.41, 53556.52, 55226.49, 0.000, 0.000, 0.000, 10:38:19.994
145, 64032.96, 40840.91, 31355.43, 22936.29, 46415.36, 64512.09, 53982.23, 55476.34, 0.000, 0.000, 0.000, 10:38:19.994
146, 64001.74, 40735.96, 31273.73, 22819.95, 46312.46, 64439.43, 53866.47, 55456.04, 0.000, 0.000, 0.000, 10:38:19.994
147, 63810.56, 40328.20, 30912.44, 22381.65, 45921.01, 64059.02, 53442.04, 55209.19, 0.000, 0.000, 0.000, 10:38:19.994
148, 63798.67, 40357.64, 30926.05, 22413.26, 45949.53, 64059.83, 53474.60, 55188.54, 0.000, 0.000, 0.000, 10:38:19.995
149, 63985.38, 40779.86, 31294.79, 22866.04, 46353.29, 64445.84, 53913.77, 55435.30, 0.154, 0.054, 0.980, 10:38:19.995
150, 64018.16, 40787.48, 31316.34, 22863.22, 46360.09, 64479.28, 53917.01, 55479.84, 0.000, 0.000, 0.000, 10:38:19.995
151, 63840.13, 40382.98, 30962.28, 22429.84, 45972.60, 64108.85, 53494.72, 55243.32, 0.000, 0.000, 0.000, 10:38:19.995
152, 63773.23, 40293.29, 30872.21, 22349.26, 45888.00, 64001.87, 53405.45, 55141.71, 0.000, 0.000, 0.000, 10:38:19.995
153, 63940.52, 40687.08, 31211.95, 22776.27, 46266.50, 64357.15, 53817.10, 55360.15, 0.000, 0.000, 0.000, 10:38:19.995
154, 64021.81, 40808.52, 31331.02, 22889.62, 46382.80, 64496.54, 53942.04, 55478.79, 0.000, 0.000, 0.000, 10:38:19.995
155, 63852.96, 40422.26, 30996.28, 22477.76, 46011.36, 64149.26, 53540.79, 55265.76, 0.000, 0.000, 0.000, 10:38:19.995
156, 63760.11, 40247.27, 30835.88, 22301.52, 45845.73, 63968.16, 53365.88, 55128.43, 0.000, 0.000, 0.000, 10:38:19.996
157, 63909.78, 40597.61, 31139.62, 22684.65, 46182.35, 64279.73, 53738.66, 55315.40, 0.000, 0.000, 0.000, 10:38:19.996
158, 64015.93, 40806.55, 31333.14, 22903.27, 46379.27, 64493.36, 53954.29, 55474.14, 0.000, 0.000, 0.000, 10:38:19.996
159, 63874.87, 40473.66, 31045.70, 22540.73, 46058.16, 64196.89, 53602.50, 55302.86, 0.160, 0.056, 0.978, 10:38:19.996
160, 63733.80, 40210.32, 30803.27, 22265.55, 45805.94, 63932.49, 53327.10, 55107.71, 0.000, 0.000, 0.000, 10:38:19.996
161, 63845.59, 40500.24, 31048.09, 22584.07, 46083.95, 64179.99, 53626.04, 55242.51, 0.000, 0.000, 0.000, 10:38:19.996
162, 64008.71, 40820.18, 31334.55, 22905.93, 46388.05, 64491.80, 53956.24, 55461.07, 0.000, 0.000, 0.000, 10:38:19.996
163, 63895.12, 40545.08, 31101.09, 22598.69, 46123.85, 64256.99, 53668.50, 55329.02, 0.000, 0.000, 0.000, 10:38:19.996
164, 63734.75, 40214.63, 30802.87, 22251.68, 45807.60, 63939.13, 53326.16, 55110.41, 0.000, 0.000, 0.000, 10:38:19.996
165, 63806.00, 40412.55, 30967.31, 22481.92, 45999.69, 64102.52, 53537.48, 55190.68, 0.000, 0.000, 0.000, 10:38:19.996
166, 63983.41, 40790.77, 31306.79, 22879.36, 46362.90, 64461.54, 53931.79, 55438.96, 0.000, 0.000, 0.000, 10:38:19.997
167, 63911.97, 40601.94, 31148.70, 22668.07, 46179.77, 64307.96, 53730.39, 55362.48, 0.000, 0.000, 0.000, 10:38:19.997
168, 63726.00, 40216.96, 30800.84, 22262.47, 45809.70, 63943.00, 53329.63, 55116.58, 0.000, 0.000, 0.000, 10:38:19.997
169, 63750.35, 40326.82, 30889.95, 22381.16, 45916.56, 64017.83, 53442.30, 55134.55, 0.158, 0.050, 0.976, 10:38:19.997
170, 63940.31, 40743.47, 31260.32, 22826.92, 46315.25, 64403.93, 53879.19, 55396.47, 0.000, 0.000, 0.000, 10:38:19.997
171, 63912.87, 40647.18, 31186.25, 22731.25, 46219.18, 64337.62, 53778.32, 55379.11, 0.000, 0.000, 0.000, 10:38:19.997
172, 63724.73, 40241.43, 30826.34, 22302.32, 45828.81, 63961.46, 53357.23, 55129.41, 0.000, 0.000, 0.000, 10:38:19.997
173, 63700.64, 40255.98, 30831.17, 22302.77, 45845.53, 63949.64, 53366.00, 55089.63, 0.000, 0.000, 0.000, 10:38:19.997
174, 63885.17, 40671.30, 31195.52, 22744.38, 46245.47, 64329.86, 53800.36, 55334.07, 0.000, 0.000, 0.000, 10:38:19.997
175, 63917.89, 40690.59, 31224.58, 22764.07, 46263.64, 64375.10, 53821.79, 55388.54, 0.000, 0.000, 0.000, 10:38:19.997
176, 63729.89, 40283.39, 30864.70, 22332.50, 45872.53, 64004.06, 53399.16, 55153.51, 0.000, 0.000, 0.000, 10:38:19.998
177, 63655.93, 40175.76, 30756.00, 22235.04, 45770.45, 63883.18, 53294.74, 55047.23, 0.000, 0.000, 0.000, 10:38:19.998
178, 63821.89, 40563.88, 31096.97, 22661.07, 46146.16, 64234.39, 53704.73, 55265.20, 0.156, 0.052, 0.970, 10:38:19.998
179, 63896.84, 40694.95, 31228.63, 22793.26, 46271.98, 64380.64, 53838.49, 55390.64, 0.000, 0.000, 0.000, 10:38:19.998
180, 63732.09, 40322.86, 30909.51, 22384.49, 45915.29, 64047.67, 53449.41, 55189.65, 0.000, 0.000, 0.000, 10:38:19.998
181, 63631.01, 40132.87, 30732.17, 22190.48, 45734.17, 63852.52, 53255.29, 55038.44, 0.000, 0.000, 0.000, 10:38:19.998
182, 63769.32, 40473.40, 31021.58, 22569.81, 46061.18, 64152.03, 53613.74, 55211.38, 0.000, 0.000, 0.000, 10:38:19.998
183, 63883.56, 40699.38, 31227.26, 22809.17, 46275.22, 64381.49, 53848.10, 55376.80, 0.000, 0.000, 0.000, 10:38:19.998
184, 63753.95, 40382.61, 30951.20, 22461.00, 45968.57, 64102.99, 53515.53, 55214.37, 0.000, 0.000, 0.000, 10:38:19.998
185, 63619.01, 40114.41, 30708.23, 22179.84, 45711.64, 63837.54, 53235.50, 55030.39, 0.000, 0.000, 0.000, 10:38:19.998
186, 63735.35, 40396.64, 30945.70, 22476.71, 45982.68, 64079.59, 53531.29, 55170.05, 0.000, 0.000, 0.000, 10:38:19.999
187, 63893.38, 40718.80, 31236.32, 22811.47, 46290.53, 64393.83, 53867.08, 55389.50, 0.000, 0.000, 0.000, 10:38:19.999
188, 63787.29, 40460.48, 31016.67, 22536.77, 46040.32, 64173.91, 53596.26, 55263.21, 0.154, 0.052, 0.972, 10:38:19.999
189, 63623.32, 40117.58, 30706.58, 22179.99, 45708.89, 63842.50, 53239.60, 55034.48, 0.000, 0.000, 0.000, 10:38:19.999
190, 63696.05, 40309.22, 30863.02, 22392.07, 45894.12, 63996.42, 53441.59, 55109.99, 0.000, 0.000, 0.000, 10:38:19.999
191, 63878.00, 40699.08, 31213.29, 22801.17, 46269.96, 64366.45, 53845.93, 55357.47, 0.000, 0.000, 0.000, 10:38:19.999
192, 63812.64, 40532.23, 31079.68, 22603.96, 46110.02, 64232.30, 53662.49, 55289.61, 0.000, 0.000, 0.000, 10:38:19.999
193, 63630.72, 40148.94, 30735.30, 22197.36, 45741.19, 63869.57, 53260.38, 55048.19, 0.000, 0.000, 0.000, 10:38:20.000
194, 63651.04, 40241.66, 30806.71, 22301.47, 45831.36, 63929.79, 53357.46, 55055.45, 0.000, 0.000, 0.000, 10:38:20.000
195, 63836.31, 40653.06, 31171.65, 22741.63, 46225.29, 64312.63, 53789.43, 55299.09, 0.000, 0.000, 0.000, 10:38:20.000
196, 63821.20, 40584.44, 31123.78, 22666.14, 46156.82, 64274.20, 53714.57, 55300.96, 0.000, 0.000, 0.000, 10:38:20.000
197, 63644.60, 40190.36, 30776.34, 22246.53, 45776.84, 63910.21, 53305.22, 55073.15, 0.000, 0.000, 0.000, 10:38:20.000
198, 63631.97, 40190.25, 30764.40, 22248.39, 45779.10, 63889.38, 53308.89, 55039.11, 0.154, 0.050, 0.974, 10:38:20.000
199, 63821.70, 40609.83, 31134.28, 22694.60, 46184.92, 64275.64, 53747.88, 55289.63, 0.000, 0.000, 0.000, 10:38:20.000
200, 63863.56, 40655.34, 31186.94, 22729.82, 46227.52, 64344.03, 53789.98, 55356.77, 0.000, 0.000, 0.000, 10:38:20.000
201, 63678.06, 40252.79, 30832.64, 22310.24, 45839.29, 63977.91, 53372.43, 55128.41, 0.000, 0.000, 0.000, 10:38:20.000
202, 63607.18, 40138.77, 30722.31, 22200.00, 45731.18, 63848.83, 53256.56, 55017.32, 0.000, 0.000, 0.000, 10:38:20.000
203, 63781.89, 40531.38, 31062.53, 22622.38, 46109.14, 64201.07, 53666.78, 55234.87, 0.000, 0.000, 0.000, 10:38:20.000
204, 63879.43, 40688.67, 31212.51, 22781.12, 46260.27, 64370.83, 53827.83, 55367.23, 0.000, 0.000, 0.000, 10:38:20.001
205, 63730.03, 40339.67, 30909.29, 22400.94, 45924.63, 64058.60, 53462.82, 55180.06, 0.000, 0.000, 0.000, 10:38:20.001
206, 63622.20, 40138.64, 30723.84, 22191.28, 45732.00, 63851.22, 53254.23, 55026.89, 0.000, 0.000, 0.000, 10:38:20.001
207, 63758.86, 40471.03, 31011.95, 22556.91, 46054.20, 64144.09, 53602.61, 55196.91, 0.000, 0.000, 0.000, 10:38:20.001
208, 63881.60, 40710.08, 31231.71, 22801.46, 46282.26, 64384.93, 53849.17, 55364.80, 0.156, 0.054, 0.976, 10:38:20.001
209, 63755.98, 40407.62, 30970.82, 22471.59, 45991.20, 64119.73, 53532.16, 55208.32, 0.000, 0.000, 0.000, 10:38:20.001
210, 63621.69, 40131.37, 30720.39, 22183.73, 45725.83, 63849.57, 53246.79, 55026.73, 0.000, 0.000, 0.000, 10:38:20.001
211, 63723.52, 40389.64, 30939.31, 22469.58, 45975.39, 64068.17, 53517.07, 55145.95, 0.000, 0.000, 0.000, 10:38:20.001
212, 63884.79, 40715.15, 31234.17, 22806.69, 46288.36, 64383.91, 53854.52, 55365.47, 0.000, 0.000, 0.000, 10:38:20.001
213, 63799.45, 40487.37, 31043.69, 22554.21, 46068.91, 64193.22, 53616.13, 55271.08, 0.000, 0.000, 0.000, 10:38:20.001
214, 63641.36, 40146.46, 30739.21, 22200.45, 45741.41, 63868.25, 53264.00, 55055.23, 0.000, 0.000, 0.000, 10:38:20.463
215, 63707.86, 40325.77, 30892.30, 22396.02, 45915.38, 64011.50, 53451.20, 55122.60, 0.000, 0.000, 0.000, 10:38:20.463
216, 63897.58, 40722.78, 31246.20, 22818.02, 46296.14, 64386.59, 53863.41, 55374.86, 0.000, 0.000, 0.000, 10:38:20.463
217, 63857.77, 40584.08, 31133.61, 22660.06, 46160.57, 64280.89, 53715.91, 55333.11, 0.160, 0.054, 0.976, 10:38:20.463
218, 63672.00, 40197.73, 30787.25, 22249.84, 45787.05, 63917.85, 53314.72, 55094.32, 0.000, 0.000, 0.000, 10:38:20.464
219, 63680.70, 40268.95, 30840.24, 22332.97, 45858.07, 63959.94, 53390.36, 55090.43, 0.000, 0.000, 0.000, 10:38:20.464
220, 63873.80, 40683.48, 31209.25, 22779.09, 46256.35, 64345.48, 53823.18, 55345.33, 0.000, 0.000, 0.000, 10:38:20.464
221, 63870.35, 40634.00, 31178.98, 22714.40, 46206.66, 64323.13, 53766.80, 55356.20, 0.000, 0.000, 0.000, 10:38:20.464
222, 63706.45, 40253.90, 30842.34, 22317.34, 45839.83, 63973.24, 53373.75, 55141.19, 0.000, 0.000, 0.000, 10:38:20.464
223, 63670.62, 40221.09, 30800.84, 22281.78, 45809.05, 63917.70, 53341.52, 55072.46, 0.000, 0.000, 0.000, 10:38:20.464
224, 63857.03, 40637.44, 31165.66, 22727.48, 46209.28, 64298.12, 53775.99, 55313.37, 0.000, 0.000, 0.000, 10:38:20.464
225, 63897.89, 40689.70, 31226.93, 22778.24, 46259.41, 64372.15, 53826.75, 55385.63, 0.000, 0.000, 0.000, 10:38:20.464
226, 63745.72, 40324.58, 30902.98, 22394.19, 45905.77, 64039.73, 53444.76, 55183.41, 0.000, 0.000, 0.000, 10:38:20.464
227, 63669.70, 40196.95, 30780.23, 22258.25, 45784.93, 63900.02, 53313.47, 55071.43, 0.154, 0.054, 0.984, 10:38:20.464
228, 63837.88, 40582.43, 31116.76, 22668.87, 46155.37, 64248.10, 53718.13, 55286.01, 0.000, 0.000, 0.000, 10:38:20.464
229, 63933.32, 40757.80, 31281.82, 22844.44, 46321.55, 64432.28, 53894.39, 55424.14, 0.000, 0.000, 0.000, 10:38:20.464
230, 63790.60, 40412.31, 30984.70, 22473.20, 45990.52, 64125.36, 53536.41, 55239.18, 0.000, 0.000, 0.000, 10:38:20.464
231, 63678.26, 40186.29, 30774.26, 22241.97, 45774.07, 63896.01, 53304.19, 55070.72, 0.000, 0.000, 0.000, 10:38:20.464
232, 63818.12, 40517.61, 31056.63, 22602.08, 46092.74, 64185.34, 53649.30, 55243.86, 0.000, 0.000, 0.000, 10:38:20.465
233, 63952.96, 40779.53, 31299.24, 22867.64, 46344.53, 64447.52, 53917.59, 55435.34, 0.000, 0.000, 0.000, 10:38:20.465
234, 63833.03, 40490.61, 31053.01, 22556.51, 46065.65, 64195.30, 53616.36, 55289.59, 0.000, 0.000, 0.000, 10:38:20.465
235, 63694.33, 40197.73, 30787.31, 22252.93, 45784.71, 63908.46, 53309.51, 55088.13, 0.000, 0.000, 0.000, 10:38:20.465
236, 63794.25, 40451.74, 31002.00, 22523.76, 46029.73, 64121.12, 53573.04, 55201.43, 0.000, 0.000, 0.000, 10:38:20.465
237, 63958.69, 40790.10, 31307.91, 22869.21, 46354.23, 64448.17, 53922.33, 55423.61, 0.154, 0.058, 0.984, 10:38:20.465
238, 63876.93, 40577.09, 31127.96, 22633.53, 46147.43, 64268.46, 53695.41, 55333.15, 0.000, 0.000, 0.000, 10:38:20.465
239, 63712.44, 40223.53, 30810.89, 22262.96, 45804.85, 63932.65, 53329.00, 55108.65, 0.000, 0.000, 0.000, 10:38:20.465
240, 63764.05, 40384.86, 30940.89, 22447.39, 45961.00, 64057.80, 53499.55, 55160.57, 0.000, 0.000, 0.000, 10:38:20.465
241, 63945.46, 40780.38, 31292.31, 22868.47, 46340.44, 64429.75, 53910.53, 55410.89, 0.000, 0.000, 0.000, 10:38:20.465
242, 63891.10, 40628.50, 31173.26, 22703.69, 46195.13, 64314.89, 53750.78, 55359.01, 0.000, 0.000, 0.000, 10:38:20.465
243, 63723.10, 40243.82, 30837.40, 22300.16, 45828.43, 63958.35, 53352.76, 55135.85, 0.000, 0.000, 0.000, 10:38:20.465
244, 63737.07, 40312.53, 30884.39, 22377.69, 45897.68, 63998.07, 53431.31, 55137.57, 0.000, 0.000, 0.000, 10:38:20.466
245, 63936.89, 40738.80, 31257.57, 22839.88, 46306.69, 64396.02, 53882.63, 55399.51, 0.000, 0.000, 0.000, 10:38:20.466
246, 63942.32, 40701.03, 31239.47, 22795.07, 46271.11, 64388.51, 53840.90, 55425.80, 0.000, 0.000, 0.000, 10:38:20.466
247, 63758.13, 40291.81, 30878.80, 22354.83, 45878.72, 64011.44, 53414.01, 55182.86, 0.156, 0.062, 0.978, 10:38:20.466
248, 63713.85, 40244.23, 30823.32, 22318.06, 45835.67, 63943.42, 53369.64, 55107.31, 0.000, 0.000, 0.000, 10:38:20.466
249, 63895.61, 40663.32, 31189.18, 22777.23, 46238.72, 64326.04, 53809.48, 55350.63, 0.000, 0.000, 0.000, 10:38:20.466
250, 63941.23, 40730.31, 31259.88, 22842.41, 46302.22, 64413.48, 53873.38, 55430.60, 0.000, 0.000, 0.000, 10:38:20.466
251, 63784.59, 40356.99, 30930.97, 22435.05, 45942.82, 64074.45, 53481.00, 55225.75, 0.000, 0.000, 0.000, 10:38:20.466
252, 63707.99, 40217.78, 30795.56, 22285.29, 45809.45, 63921.27, 53338.21, 55108.18, 0.000, 0.000, 0.000, 10:38:20.466
253, 63864.68, 40600.11, 31126.79, 22699.96, 46174.48, 64262.22, 53740.95, 55317.77, 0.000, 0.000, 0.000, 10:38:20.466
254, 63956.25, 40777.79, 31296.98, 22881.28, 46342.36, 64449.09, 53920.92, 55460.73, 0.000, 0.000, 0.000, 10:38:20.466
255, 63815.75, 40438.39, 31003.10, 22510.60, 46013.88, 64147.14, 53561.95, 55282.63, 0.000, 0.000, 0.000, 10:38:20.466
0, 63697.60, 40200.35, 30783.11, 22249.91, 45785.96, 63905.78, 53313.29, 55106.84, 0.000, 0.000, 0.000, 10:38:20.466
1, 63834.14, 40531.51, 31066.96, 22616.01, 46104.88, 64193.96, 53659.00, 55272.33, 0.154, 0.062, 0.982, 10:38:20.467
2, 63986.23, 40820.88, 31332.65, 22916.37, 46379.73, 64478.34, 53951.97, 55476.09, 0.000, 0.000, 0.000, 10:38:20.467
3, 63880.25, 40541.61, 31098.16, 22602.08, 46112.18, 64238.02, 53658.60, 55343.95, 0.000, 0.000, 0.000, 10:38:20.467
4, 63717.96, 40214.25, 30806.67, 22255.59, 45800.80, 63919.93, 53318.48, 55123.56, 0.000, 0.000, 0.000, 10:38:20.467
5, 63816.95, 40463.18, 31018.72, 22538.04, 46042.16, 64128.52, 53582.74, 55233.93, 0.000, 0.000, 0.000, 10:38:20.467
6, 63993.09, 40820.83, 31344.83, 22907.27, 46385.37, 64475.57, 53954.00, 55468.96, 0.000, 0.000, 0.000, 10:38:20.467
7, 63913.74, 40612.98, 31170.18, 22673.65, 46184.56, 64305.00, 53733.12, 55378.57, 0.000, 0.000, 0.000, 10:38:20.467
8, 63746.55, 40246.46, 30839.37, 22287.91, 45832.47, 63958.64, 53352.16, 55152.32, 0.000, 0.000, 0.000, 10:38:20.467
9, 63784.30, 40391.41, 30953.01, 22460.96, 45973.54, 64067.96, 53509.71, 55199.29, 0.000, 0.000, 0.000, 10:38:20.467
10, 63965.28, 40789.54, 31306.30, 22890.73, 46354.84, 64443.83, 53925.35, 55448.39, 0.156, 0.062, 0.980, 10:38:20.467
11, 63944.29, 40677.63, 31220.83, 22768.38, 46244.89, 64366.79, 53808.54, 55427.83, 0.000, 0.000, 0.000, 10:38:20.468
12, 63764.79, 40273.02, 30860.79, 22329.77, 45854.58, 63992.39, 53389.84, 55185.32, 0.000, 0.000, 0.000, 10:38:20.468
13, 63770.38, 40326.90, 30895.34, 22401.01, 45907.91, 64015.82, 53451.29, 55173.25, 0.000, 0.000, 0.000, 10:38:20.468
14, 63968.48, 40759.52, 31278.47, 22863.53, 46322.89, 64416.79, 53903.04, 55433.13, 0.000, 0.000, 0.000, 10:38:20.468
15, 63980.66, 40744.57, 31281.11, 22835.41, 46309.32, 64430.44, 53882.25, 55466.25, 0.000, 0.000, 0.000, 10:38:20.468
16, 63794.80, 40332.56, 30919.23, 22394.57, 45915.24, 64054.04, 53453.30, 55225.10, 0.000, 0.000, 0.000, 10:38:20.468
17, 63748.43, 40276.41, 30858.95, 22348.01, 45864.39, 63977.04, 53399.63, 55145.42, 0.000, 0.000, 0.000, 10:38:20.469
18, 63936.43, 40704.02, 31232.05, 22808.57, 46274.01, 64364.93, 53845.44, 55394.44, 0.000, 0.000, 0.000, 10:38:20.469
19, 63995.79, 40796.94, 31327.91, 22893.06, 46361.88, 64475.68, 53937.53, 55494.51, 0.000, 0.000, 0.000, 10:38:20.469
20, 63824.55, 40409.74, 30986.76, 22471.26, 45987.77, 64124.45, 53532.94, 55276.27, 0.160, 0.058, 0.978, 10:38:20.469
21, 63731.01, 40247.96, 30836.09, 22311.67, 45834.22, 63951.45, 53367.45, 55140.68, 0.000, 0.000, 0.000, 10:38:20.469
22, 63897.36, 40638.71, 31171.76, 22725.91, 46208.18, 64296.49, 53773.56, 55349.98, 0.000, 0.000, 0.000, 10:38:20.469
23, 64013.41, 40846.27, 31362.29, 22934.10, 46406.04, 64510.80, 53983.80, 55516.41, 0.000, 0.000, 0.000, 10:38:20.469
24, 63868.97, 40507.42, 31065.26, 22569.65, 46079.44, 64209.59, 53628.74, 55340.41, 0.000, 0.000, 0.000, 10:38:20.469
25, 63733.36, 40244.71, 30822.41, 22292.62, 45827.54, 63947.38, 53357.55, 55152.23, 0.000, 0.000, 0.000, 10:38:20.469
26, 63858.48, 40559.88, 31094.27, 22646.63, 46130.22, 64220.07, 53691.17, 55308.65, 0.000, 0.000, 0.000, 10:38:20.469
27, 64005.05, 40848.62, 31365.20, 22943.39, 46406.31, 64505.43, 53988.20, 55504.39, 0.000, 0.000, 0.000, 10:38:20.469
28, 63904.66, 40585.04, 31141.59, 22649.33, 46152.64, 64279.75, 53709.70, 55379.69, 0.000, 0.000, 0.000, 10:38:20.470
29, 63743.69, 40246.86, 30834.21, 22295.22, 45828.90, 63952.14, 53357.14, 55152.23, 0.000, 0.000, 0.000, 10:38:20.470
30, 63829.67, 40483.93, 31033.23, 22569.32, 46058.63, 64149.08, 53607.46, 55250.40, 0.162, 0.060, 0.978, 10:38:20.470
31, 64003.61, 40850.00, 31363.83, 22949.74, 46410.09, 64499.89, 53985.94, 55485.75, 0.000, 0.000, 0.000, 10:38:20.470
32, 63938.10, 40664.57, 31213.49, 22733.60, 46232.64, 64350.27, 53789.27, 55414.49, 0.000, 0.000, 0.000, 10:38:20.470
33, 63760.67, 40279.92, 30868.79, 22325.12, 45864.84, 63986.47, 53387.61, 55177.43, 0.000, 0.000, 0.000, 10:38:20.470
34, 63804.24, 40419.55, 30975.47, 22487.38, 45998.52, 64087.41, 53536.79, 55222.64, 0.000, 0.000, 0.000, 10:38:20.470
35, 63987.77, 40824.25, 31332.38, 22912.08, 46384.88, 64464.64, 53954.76, 55468.63, 0.000, 0.000, 0.000, 10:38:20.470
36, 63957.44, 40722.44, 31252.57, 22793.93, 46285.10, 64392.56, 53842.58, 55444.57, 0.000, 0.000, 0.000, 10:38:20.470
37, 63776.32, 40318.21, 30897.44, 22368.75, 45898.59, 64020.38, 53424.51, 55208.79, 0.000, 0.000, 0.000, 10:38:20.470
38, 63775.31, 40350.46, 30917.47, 22419.49, 45932.14, 64027.42, 53468.19, 55189.85, 0.000, 0.000, 0.000, 10:38:20.470
39, 63965.08, 40767.77, 31290.74, 22880.90, 46333.85, 64416.59, 53911.02, 55439.95, 0.000, 0.000, 0.000, 10:38:20.470
40, 63979.99, 40760.44, 31296.26, 22865.65, 46325.44, 64435.11, 53901.36, 55468.58, 0.162, 0.056, 0.980, 10:38:20.471
41, 63799.43, 40356.36, 30941.41, 22421.75, 45935.85, 64065.48, 53479.25, 55239.16, 0.000, 0.000, 0.000, 10:38:20.471
42, 63746.77, 40283.50, 30863.53, 22354.22, 45865.35, 63971.34, 53404.17, 55152.95, 0.000, 0.000, 0.000, 10:38:20.471
43, 63942.73, 40714.57, 31241.10, 22814.58, 46280.38, 64362.76, 53855.68, 55403.67, 0.000, 0.000, 0.000, 10:38:20.471
44, 64017.90, 40831.83, 31357.15, 22920.06, 46392.54, 64497.07, 53972.73, 55516.57, 0.000, 0.000, 0.000, 10:38:20.471
45, 63860.25, 40460.97, 31030.70, 22520.86, 46035.07, 64163.99, 53583.37, 55319.02, 0.000, 0.000, 0.000, 10:38:20.471
46, 63750.70, 40268.68, 30847.24, 22325.28, 45851.20, 63961.48, 53383.09, 55164.77, 0.000, 0.000, 0.000, 10:38:20.471
47, 63897.46, 40635.71, 31162.64, 22722.58, 46203.49, 64285.49, 53766.29, 55353.00, 0.000, 0.000, 0.000, 10:38:20.471
48, 64011.71, 40854.38, 31364.10, 22948.96, 46411.70, 64507.00, 53984.07, 55509.93, 0.000, 0.000, 0.000, 10:38:20.473
49, 63886.58, 40537.05, 31089.53, 22603.74, 46106.30, 64229.03, 53651.02, 55347.50, 0.158, 0.060, 0.984, 10:38:20.473
50, 63747.24, 40260.07, 30834.86, 22315.67, 45839.70, 63953.46, 53363.16, 55152.10, 0.000, 0.000, 0.000, 10:38:20.473
51, 63871.09, 40569.46, 31100.51, 22648.89, 46136.91, 64220.38, 53691.21, 55308.07, 0.000, 0.000, 0.000, 10:38:20.473
52, 64015.71, 40869.87, 31376.01, 22958.50, 46424.48, 64516.88, 54001.48, 55515.20, 0.000, 0.000, 0.000, 10:38:20.473
53, 63918.66, 40618.68, 31163.94, 22685.86, 46182.26, 64305.12, 53737.46, 55404.18, 0.000, 0.000, 0.000, 10:38:20.474
54, 63753.81, 40270.22, 30850.59, 22322.24, 45848.97, 63971.20, 53376.16, 55171.93, 0.000, 0.000, 0.000, 10:38:20.474
55, 63827.91, 40485.02, 31034.97, 22569.29, 46058.99, 64149.13, 53606.90, 55270.36, 0.000, 0.000, 0.000, 10:38:20.474
56, 64009.31, 40861.42, 31371.70, 22960.65, 46419.95, 64508.09, 53995.35, 55512.25, 0.000, 0.000, 0.000, 10:38:20.475
57, 63947.18, 40687.08, 31225.88, 22765.16, 46253.09, 64369.29, 53812.36, 55442.85, 0.000, 0.000, 0.000, 10:38:20.475
58, 63756.63, 40283.72, 30864.96, 22340.25, 45867.36, 63989.29, 53391.83, 55188.11, 0.000, 0.000, 0.000, 10:38:20.475
59, 63795.21, 40408.36, 30965.32, 22483.82, 45989.94, 64079.86, 53527.48, 55221.17, 0.160, 0.058, 0.980, 10:38:20.475
60, 63983.12, 40812.54, 31325.57, 22908.97, 46378.06, 64459.23, 53947.74, 55470.59, 0.000, 0.000, 0.000, 10:38:20.475
61, 63962.29, 40731.54, 31262.24, 22803.61, 46298.82, 64406.59, 53857.60, 55459.86, 0.000, 0.000, 0.000, 10:38:20.475
62, 63784.03, 40329.79, 30905.58, 22374.79, 45911.89, 64033.79, 53436.83, 55219.04, 0.000, 0.000, 0.000, 10:38:20.475
63, 63770.15, 40344.88, 30906.61, 22404.14, 45926.87, 64020.31, 53455.38, 55185.72, 0.000, 0.000, 0.000, 10:38:20.475
64, 63957.66, 40762.56, 31273.80, 22853.90, 46326.96, 64404.38, 53890.88, 55434.13, 0.000, 0.000, 0.000, 10:38:20.475
65, 63987.48, 40779.88, 31299.73, 22863.31, 46341.33, 64445.87, 53908.83, 55488.00, 0.000, 0.000, 0.000, 10:38:20.475
66, 63824.64, 40389.22, 30956.03, 22456.28, 45964.77, 64092.80, 53506.14, 55266.25, 0.000, 0.000, 0.000, 10:38:20.476
67, 63758.75, 40284.30, 30853.21, 22363.05, 45865.75, 63973.93, 53403.88, 55161.87, 0.000, 0.000, 0.000, 10:38:20.476
68, 63931.91, 40681.98, 31200.78, 22780.14, 46246.03, 64335.16, 53822.33, 55383.64, 0.000, 0.000, 0.000, 10:38:20.476
69, 64017.47, 40820.74, 31332.29, 22912.84, 46376.79, 64487.20, 53961.71, 55505.55, 0.160, 0.056, 0.974, 10:38:20.476
70, 63871.11, 40470.94, 31027.30, 22528.08, 46038.64, 64174.52, 53594.63, 55318.35, 0.000, 0.000, 0.000, 10:38:20.476
71, 63766.95, 40272.84, 30845.61, 22326.38, 45849.66, 63969.82, 53388.88, 55164.50, 0.000, 0.000, 0.000, 10:38:20.476
72, 63909.09, 40621.28, 31147.49, 22709.80, 46185.63, 64277.00, 53753.66, 55344.82, 0.000, 0.000, 0.000, 10:38:20.476
73, 64027.31, 40852.86, 31362.47, 22950.19, 46408.52, 64510.02, 53988.87, 55516.16, 0.000, 0.000, 0.000, 10:38:20.476
74, 63908.42, 40555.50, 31108.96, 22621.22, 46123.32, 64251.16, 53676.46, 55368.58, 0.000, 0.000, 0.000, 10:38:20.476
75, 63761.50, 40264.39, 30844.36, 22310.08, 45843.74, 63963.79, 53370.80, 55165.98, 0.000, 0.000, 0.000, 10:38:20.477
76, 63872.92, 40550.71, 31084.06, 22623.43, 46119.20, 64209.03, 53672.59, 55299.76, 0.000, 0.000, 0.000, 10:38:20.477
77, 64022.08, 40855.14, 31360.75, 22942.77, 46412.03, 64506.89, 53989.54, 55502.64, 0.000, 0.000, 0.000, 10:38:20.477
78, 63927.60, 40612.78, 31157.68, 22680.45, 46179.44, 64304.20, 53738.98, 55397.43, 0.000, 0.000, 0.000, 10:38:20.943
79, 63761.68, 40259.43, 30841.76, 22312.09, 45840.50, 63966.02, 53371.29, 55174.83, 0.158, 0.054, 0.976, 10:38:20.943
80, 63834.14, 40465.04, 31015.10, 22547.86, 46040.52, 64133.95, 53588.11, 55258.85, 0.000, 0.000, 0.000, 10:38:20.943
81, 64013.38, 40839.83, 31348.90, 22930.45, 46400.84, 64490.57, 53973.11, 55494.73, 0.000, 0.000, 0.000, 10:38:20.943
82, 63965.82, 40689.96, 31228.13, 22758.86, 46257.47, 64375.46, 53818.42, 55447.73, 0.000, 0.000, 0.000, 10:38:20.943
83, 63784.14, 40292.32, 30877.95, 22338.96, 45877.16, 64005.76, 53405.87, 55205.86, 0.000, 0.000, 0.000, 10:38:20.943
84, 63817.16, 40402.32, 30964.34, 22469.72, 45982.36, 64081.93, 53521.09, 55223.89, 0.000, 0.000, 0.000, 10:38:20.943
85, 64003.50, 40808.99, 31321.86, 22895.05, 46370.68, 64460.86, 53942.38, 55470.90, 0.000, 0.000, 0.000, 10:38:20.943
86, 64003.95, 40758.07, 31287.81, 22827.81, 46322.47, 64439.29, 53886.77, 55482.66, 0.000, 0.000, 0.000, 10:38:20.943
87, 63822.03, 40344.54, 30924.76, 22392.04, 45925.50, 64060.39, 53457.88, 55239.32, 0.000, 0.000, 0.000, 10:38:20.944
88, 63793.17, 40332.69, 30903.70, 22392.83, 45915.82, 64023.33, 53451.54, 55193.72, 0.158, 0.056, 0.974, 10:38:20.944
89, 63975.43, 40747.30, 31266.22, 22831.23, 46313.86, 64402.82, 53881.63, 55432.95, 0.000, 0.000, 0.000, 10:38:20.944
90, 64011.08, 40790.43, 31313.88, 22868.58, 46353.76, 64464.98, 53921.30, 55495.13, 0.000, 0.000, 0.000, 10:38:20.944
91, 63849.16, 40401.76, 30974.09, 22457.15, 45979.41, 64112.85, 53515.71, 55281.20, 0.000, 0.000, 0.000, 10:38:20.944
92, 63783.14, 40290.71, 30864.67, 22351.83, 45874.56, 63986.71, 53403.19, 55175.17, 0.000, 0.000, 0.000, 10:38:20.944
93, 63956.23, 40689.47, 31208.69, 22779.47, 46256.13, 64345.11, 53817.68, 55395.20, 0.000, 0.000, 0.000, 10:38:20.944
94, 64033.97, 40830.31, 31341.95, 22908.77, 46388.00, 64496.31, 53961.00, 55518.58, 0.000, 0.000, 0.000, 10:38:20.944
95, 63882.91, 40476.84, 31032.89, 22524.16, 46045.57, 64180.66, 53591.19, 55333.62, 0.000, 0.000, 0.000, 10:38:20.944
96, 63769.55, 40262.55, 30833.34, 22309.32, 45841.14, 63961.88, 53368.72, 55170.21, 0.000, 0.000, 0.000, 10:38:20.944
97, 63920.71, 40621.57, 31145.28, 22699.49, 46187.02, 64278.77, 53744.30, 55363.23, 0.000, 0.000, 0.000, 10:38:20.944
98, 64032.80, 40852.24, 31361.40, 22930.54, 46408.88, 64511.63, 53981.20, 55531.48, 0.160, 0.058, 0.980, 10:38:20.944
99, 63904.66, 40547.98, 31100.02, 22602.51, 46116.52, 64247.76, 53663.81, 55377.63, 0.000, 0.000, 0.000, 10:38:20.945
100, 63748.00, 40237.27, 30819.23, 22281.49, 45819.15, 63943.46, 53339.69, 55162.02, 0.000, 0.000, 0.000, 10:38:20.945
101, 63856.56, 40516.20, 31054.71, 22589.54, 46087.93, 64179.28, 53630.35, 55286.73, 0.000, 0.000, 0.000, 10:38:20.945
102, 64014.81, 40839.96, 31349.57, 22929.18, 46400.70, 64494.57, 53967.52, 55504.79, 0.000, 0.000, 0.000, 10:38:20.945
103, 63925.05, 40613.34, 31155.27, 22671.35, 46181.03, 64303.98, 53728.07, 55403.63, 0.000, 0.000, 0.000, 10:38:20.946
104, 63738.28, 40231.89, 30812.84, 22271.81, 45816.07, 63939.53, 53329.29, 55150.34, 0.000, 0.000, 0.000, 10:38:20.946
105, 63804.19, 40422.97, 30975.31, 22484.85, 46003.78, 64094.68, 53534.39, 55228.90, 0.000, 0.000, 0.000, 10:38:20.946
106, 63981.15, 40805.14, 31321.57, 22882.98, 46370.88, 64457.63, 53930.04, 55471.04, 0.000, 0.000, 0.000, 10:38:20.946
107, 63938.14, 40674.36, 31214.68, 22737.18, 46242.85, 64358.83, 53790.81, 55431.79, 0.000, 0.000, 0.000, 10:38:20.946
108, 63755.11, 40272.37, 30852.09, 22303.67, 45854.94, 63982.74, 53366.60, 55185.65, 0.160, 0.062, 0.980, 10:38:20.946
109, 63783.52, 40370.58, 30924.84, 22424.19, 45950.13, 64049.32, 53474.07, 55202.35, 0.000, 0.000, 0.000, 10:38:20.946
110, 63972.23, 40776.66, 31286.52, 22859.93, 46339.86, 64429.10, 53900.63, 55447.84, 0.000, 0.000, 0.000, 10:38:20.946
111, 63968.52, 40736.97, 31259.74, 22812.61, 46300.07, 64415.85, 53858.74, 55466.34, 0.000, 0.000, 0.000, 10:38:20.946
112, 63786.45, 40327.57, 30900.91, 22370.90, 45907.75, 64040.61, 53430.97, 55225.21, 0.000, 0.000, 0.000, 10:38:20.946
113, 63754.08, 40304.87, 30868.18, 22362.41, 45888.91, 63995.12, 53413.70, 55167.03, 0.000, 0.000, 0.000, 10:38:20.947
114, 63930.66, 40707.13, 31219.33, 22800.63, 46275.33, 64364.28, 53835.32, 55390.37, 0.000, 0.000, 0.000, 10:38:20.947
115, 63977.73, 40774.48, 31291.41, 22860.47, 46339.25, 64451.27, 53903.33, 55469.63, 0.000, 0.000, 0.000, 10:38:20.947
116, 63810.32, 40386.72, 30948.47, 22435.03, 45963.75, 64100.53, 53496.26, 55253.87, 0.000, 0.000, 0.000, 10:38:20.947
117, 63723.55, 40250.84, 30821.56, 22297.52, 45835.36, 63949.32, 53355.27, 55128.70, 0.000, 0.000, 0.000, 10:38:20.947
118, 63900.68, 40646.29, 31172.28, 22727.39, 46217.15, 64308.83, 53773.04, 55355.57, 0.154, 0.058, 0.976, 10:38:20.947
119, 63994.07, 40812.94, 31328.92, 22893.64, 46374.97, 64484.76, 53943.54, 55498.89, 0.000, 0.000, 0.000, 10:38:20.947
120, 63849.45, 40464.25, 31019.64, 22522.53, 46035.38, 64174.63, 53578.56, 55318.80, 0.000, 0.000, 0.000, 10:38:20.947
121, 63726.23, 40227.48, 30799.94, 22278.23, 45809.96, 63936.07, 53335.95, 55146.07, 0.000, 0.000, 0.000, 10:38:20.947
122, 63873.64, 40569.93, 31100.64, 22661.16, 46141.13, 64238.31, 53699.30, 55323.45, 0.000, 0.000, 0.000, 10:38:20.947
123, 63994.56, 40817.57, 31327.85, 22927.39, 46379.11, 64485.21, 53955.84, 55496.30, 0.000, 0.000, 0.000, 10:38:20.947
124, 63877.35, 40541.50, 31091.77, 22592.72, 46113.23, 64244.30, 53653.77, 55356.75, 0.000, 0.000, 0.000, 10:38:20.948
125, 63726.14, 40225.50, 30805.24, 22249.42, 45811.04, 63935.13, 53321.89, 55135.76, 0.000, 0.000, 0.000, 10:38:20.948
126, 63828.94, 40491.99, 31030.66, 22539.92, 46068.20, 64160.17, 53604.42, 55254.05, 0.000, 0.000, 0.000, 10:38:20.948
127, 63982.85, 40819.61, 31325.79, 22880.65, 46382.53, 64476.02, 53942.71, 55468.78, 0.000, 0.000, 0.000, 10:38:20.948
128, 63906.00, 40616.38, 31156.77, 22653.04, 46184.69, 64307.66, 53726.21, 55390.84, 0.154, 0.058, 0.982, 10:38:20.948
129, 63729.98, 40240.61, 30825.09, 22238.78, 45824.11, 63949.68, 53331.75, 55153.35, 0.000, 0.000, 0.000, 10:38:20.948
130, 63792.59, 40418.17, 30969.44, 22437.91, 45996.58, 64090.79, 53522.99, 55220.90, 0.000, 0.000, 0.000, 10:38:20.948
131, 63967.92, 40793.32, 31300.18, 22841.60, 46356.15, 64446.83, 53914.84, 55446.00, 0.000, 0.000, 0.000, 10:38:20.948
132, 63941.28, 40686.01, 31214.30, 22717.96, 46251.48, 64373.83, 53803.29, 55423.92, 0.000, 0.000, 0.000, 10:38:20.948
133, 63757.59, 40276.52, 30851.13, 22275.61, 45858.29, 63995.55, 53376.55, 55178.83, 0.000, 0.000, 0.000, 10:38:20.948
134, 63774.93, 40354.75, 30909.42, 22376.53, 45934.46, 64042.51, 53463.05, 55184.38, 0.000, 0.000, 0.000, 10:38:20.948
135, 63966.20, 40772.11, 31277.62, 22823.99, 46334.81, 64427.40, 53891.82, 55430.60, 0.000, 0.000, 0.000, 10:38:20.948
136, 63970.24, 40753.84, 31269.73, 22791.96, 46315.63, 64434.24, 53867.84, 55454.65, 0.000, 0.000, 0.000, 10:38:20.949
137, 63782.27, 40337.75, 30901.42, 22334.71, 45913.75, 64051.80, 53431.69, 55207.82, 0.154, 0.062, 0.984, 10:38:20.949
138, 63752.22, 40308.33, 30862.46, 22309.83, 45884.55, 63996.98, 53403.64, 55150.56, 0.000, 0.000, 0.000, 10:38:20.949
139, 63936.45, 40716.52, 31221.21, 22752.04, 46276.51, 64372.30, 53832.88, 55392.98, 0.000, 0.000, 0.000, 10:38:20.949
140, 63989.85, 40798.41, 31301.92, 22838.19, 46353.52, 64470.77, 53918.39, 55481.92, 0.000, 0.000, 0.000, 10:38:20.949
141, 63819.95, 40405.38, 30964.61, 22418.84, 45977.29, 64118.12, 53509.88, 55261.24, 0.000, 0.000, 0.000, 10:38:20.949
142, 63740.49, 40259.04, 30830.52, 22270.74, 45841.37, 63960.01, 53362.02, 55138.71, 0.000, 0.000, 0.000, 10:38:20.949
143, 63907.61, 40641.50, 31162.53, 22683.15, 46209.21, 64302.30, 53759.97, 55351.84, 0.000, 0.000, 0.000, 10:38:20.949
144, 64004.29, 40828.23, 31333.55, 22875.09, 46386.24, 64493.99, 53948.26, 55493.61, 0.000, 0.000, 0.000, 10:38:20.949
145, 63865.21, 40492.62, 31042.46, 22519.02, 46061.54, 64198.07, 53595.61, 55315.20, 0.000, 0.000, 0.000, 10:38:20.949
146, 63736.67, 40235.89, 30808.10, 22252.44, 45815.62, 63941.95, 53333.18, 55127.91, 0.000, 0.000, 0.000, 10:38:20.949
147, 63875.09, 40563.72, 31090.67, 22609.79, 46130.63, 64230.69, 53679.10, 55300.34, 0.158, 0.062, 0.978, 10:38:20.949
148, 64003.88, 40827.27, 31331.94, 22881.17, 46383.69, 64493.21, 53952.64, 55482.91, 0.000, 0.000, 0.000, 10:38:20.950
149, 63892.91, 40557.42, 31100.48, 22587.31, 46123.54, 64259.36, 53668.23, 55355.84, 0.000, 0.000, 0.000, 10:38:20.950
150, 63732.96, 40227.11, 30802.29, 22235.43, 45808.73, 63936.61, 53323.35, 55134.27, 0.000, 0.000, 0.000, 10:38:20.950
151, 63836.11, 40483.05, 31018.50, 22516.43, 46056.62, 64152.79, 53594.56, 55247.81, 0.000, 0.000, 0.000, 10:38:20.950
152, 63999.14, 40823.14, 31323.04, 22876.09, 46382.35, 64479.37, 53944.91, 55460.82, 0.000, 0.000, 0.000, 10:38:20.950
153, 63936.56, 40640.88, 31170.78, 22678.06, 46204.09, 64331.58, 53751.74, 55396.76, 0.000, 0.000, 0.000, 10:38:20.953
154, 63748.69, 40247.09, 30818.05, 22257.49, 45825.46, 63957.12, 53339.38, 55150.49, 0.000, 0.000, 0.000, 10:38:20.954
155, 63800.62, 40409.02, 30947.82, 22443.52, 45983.15, 64083.52, 53514.57, 55204.47, 0.000, 0.000, 0.000, 10:38:20.954
156, 63972.50, 40789.70, 31286.54, 22852.27, 46348.55, 64442.11, 53910.93, 55433.64, 0.000, 0.000, 0.000, 10:38:20.954
157, 63942.86, 40686.79, 31208.53, 22739.68, 46247.93, 64370.77, 53803.80, 55415.11, 0.162, 0.066, 0.976, 10:38:20.954
158, 63758.93, 40271.27, 30842.23, 22288.33, 45848.70, 63984.62, 53369.88, 55164.93, 0.000, 0.000, 0.000, 10:38:20.954
159, 63761.48, 40324.38, 30876.97, 22350.58, 45900.89, 64006.79, 53427.26, 55151.45, 0.000, 0.000, 0.000, 10:38:20.954
160, 63938.19, 40726.11, 31230.57, 22778.82, 46285.19, 64376.62, 53842.20, 55387.87, 0.000, 0.000, 0.000, 10:38:20.955
161, 63962.40, 40736.63, 31254.29, 22787.16, 46293.72, 64409.77, 53851.54, 55443.81, 0.000, 0.000, 0.000, 10:38:20.955
162, 63779.09, 40320.42, 30889.33, 22335.40, 45894.14, 64030.35, 53418.72, 55204.40, 0.000, 0.000, 0.000, 10:38:20.955
163, 63732.89, 40265.23, 30827.57, 22287.57, 45843.56, 63953.82, 53366.75, 55130.48, 0.000, 0.000, 0.000, 10:38:20.955
164, 63911.64, 40670.07, 31183.21, 22725.42, 46232.86, 64321.46, 53787.75, 55356.69, 0.000, 0.000, 0.000, 10:38:20.955
165, 63971.88, 40775.08, 31285.15, 22826.38, 46331.54, 64440.37, 53893.36, 55455.10, 0.000, 0.000, 0.000, 10:38:20.955
166, 63796.55, 40383.95, 30945.54, 22405.86, 45955.14, 64088.60, 53481.42, 55238.67, 0.000, 0.000, 0.000, 10:38:20.955
167, 63690.24, 40208.39, 30779.74, 22230.20, 45788.26, 63902.65, 53303.68, 55094.88, 0.164, 0.056, 0.980, 10:38:20.955
168, 63834.43, 40563.68, 31086.31, 22615.38, 46129.62, 64218.23, 53675.52, 55281.85, 0.000, 0.000, 0.000, 10:38:20.955
169, 63938.53, 40763.07, 31275.07, 22824.33, 46321.62, 64423.85, 53883.41, 55436.30, 0.000, 0.000, 0.000, 10:38:20.955
170, 63798.16, 40430.41, 30987.81, 22456.48, 46001.16, 64132.99, 53535.87, 55267.61, 0.000, 0.000, 0.000, 10:38:20.955
171, 63662.48, 40165.01, 30742.34, 22185.78, 45745.79, 63867.20, 53260.14, 55076.69, 0.000, 0.000, 0.000, 10:38:20.956
172, 63789.46, 40478.20, 31013.49, 22526.24, 46047.77, 64141.23, 53589.40, 55233.19, 0.000, 0.000, 0.000, 10:38:20.956
173, 63924.73, 40762.45, 31271.68, 22818.27, 46318.56, 64419.09, 53881.29, 55422.96, 0.000, 0.000, 0.000, 10:38:20.956
174, 63823.10, 40503.13, 31044.87, 22530.67, 46063.79, 64196.20, 53606.48, 55295.60, 0.000, 0.000, 0.000, 10:38:20.956
175, 63646.41, 40147.84, 30720.21, 22163.88, 45722.57, 63852.52, 53237.72, 55054.20, 0.000, 0.000, 0.000, 10:38:20.956
176, 63735.35, 40385.87, 30918.38, 22430.58, 45952.37, 64050.87, 53490.11, 55161.71, 0.160, 0.058, 0.980, 10:38:20.956
177, 63906.09, 40745.75, 31241.79, 22803.29, 46298.06, 64393.90, 53859.39, 55395.58, 0.000, 0.000, 0.000, 10:38:20.956
178, 63845.66, 40571.32, 31095.88, 22615.56, 46128.46, 64253.86, 53674.85, 55333.48, 0.000, 0.000, 0.000, 10:38:20.956
179, 63660.20, 40171.43, 30743.79, 22189.98, 45746.26, 63877.33, 53257.03, 55088.15, 0.000, 0.000, 0.000, 10:38:20.957
180, 63700.50, 40309.49, 30860.25, 22339.09, 45882.39, 63981.78, 53406.79, 55123.22, 0.000, 0.000, 0.000, 10:38:20.957
181, 63880.39, 40702.86, 31209.74, 22756.29, 46260.29, 64351.30, 53818.02, 55359.48, 0.000, 0.000, 0.000, 10:38:20.957
182, 63867.36, 40628.32, 31153.08, 22669.32, 46187.29, 64308.43, 53739.47, 55356.29, 0.000, 0.000, 0.000, 10:38:20.957
183, 63676.68, 40204.17, 30777.81, 22219.91, 45780.44, 63916.51, 53295.81, 55101.92, 0.000, 0.000, 0.000, 10:38:20.957
184, 63675.74, 40242.35, 30799.56, 22277.16, 45818.73, 63926.75, 53341.18, 55085.94, 0.000, 0.000, 0.000, 10:38:20.957
185, 63855.87, 40643.14, 31156.07, 22703.31, 46203.58, 64297.88, 53759.92, 55319.09, 0.000, 0.000, 0.000, 10:38:20.957
186, 63893.04, 40674.94, 31195.81, 22727.14, 46232.26, 64353.35, 53792.11, 55381.56, 0.160, 0.056, 0.976, 10:38:20.958
187, 63709.96, 40255.73, 30830.32, 22277.07, 45829.73, 63973.42, 53354.33, 55142.63, 0.000, 0.000, 0.000, 10:38:20.958
188, 63662.95, 40184.90, 30758.62, 22211.17, 45765.22, 63883.25, 53287.25, 55061.91, 0.000, 0.000, 0.000, 10:38:20.958
189, 63832.60, 40577.54, 31102.52, 22630.94, 46143.61, 64239.38, 53696.44, 55281.61, 0.000, 0.000, 0.000, 10:38:20.958
190, 63905.27, 40709.41, 31225.86, 22765.52, 46269.20, 64383.95, 53830.13, 55397.10, 0.000, 0.000, 0.000, 10:38:20.958
191, 63745.23, 40333.48, 30898.02, 22358.14, 45906.41, 64045.93, 53432.13, 55189.20, 0.000, 0.000, 0.000, 10:38:20.958
192, 63632.82, 40141.47, 30715.52, 22161.75, 45722.08, 63840.78, 53233.61, 55031.40, 0.000, 0.000, 0.000, 10:38:20.958
193, 63776.77, 40493.20, 31020.09, 22537.89, 46058.96, 64149.23, 53599.21, 55216.83, 0.000, 0.000, 0.000, 10:38:20.958
194, 63892.91, 40721.41, 31229.43, 22772.16, 46277.25, 64378.05, 53836.16, 55385.81, 0.000, 0.000, 0.000, 10:38:20.958
195, 63771.04, 40406.45, 30960.36, 22435.27, 45973.22, 64103.82, 53508.35, 55230.96, 0.000, 0.000, 0.000, 10:38:20.958
196, 63631.17, 40121.07, 30699.96, 22137.41, 45700.06, 63819.53, 53214.38, 55029.32, 0.152, 0.058, 0.976, 10:38:20.958
197, 63748.49, 40412.49, 30947.38, 22460.66, 45980.29, 64070.63, 53519.21, 55167.86, 0.000, 0.000, 0.000, 10:38:20.958
198, 63893.67, 40716.59, 31223.91, 22785.90, 46273.25, 64367.01, 53834.24, 55372.60, 0.000, 0.000, 0.000, 10:38:21.424
199, 63803.23, 40480.53, 31026.14, 22519.25, 46046.22, 64168.68, 53587.37, 55270.83, 0.000, 0.000, 0.000, 10:38:21.424
200, 63629.02, 40121.34, 30702.85, 22133.39, 45700.60, 63823.73, 53211.86, 55031.22, 0.000, 0.000, 0.000, 10:38:21.424
201, 63717.18, 40345.01, 30890.67, 22393.18, 45915.80, 64010.32, 53452.05, 55130.29, 0.000, 0.000, 0.000, 10:38:21.424
202, 63892.77, 40717.59, 31222.77, 22779.73, 46273.00, 64364.82, 53838.45, 55366.70, 0.000, 0.000, 0.000, 10:38:21.424
203, 63845.83, 40568.73, 31101.45, 22609.37, 46129.11, 64250.89, 53680.95, 55319.58, 0.000, 0.000, 0.000, 10:38:21.425
204, 63659.58, 40164.05, 30742.37, 22177.24, 45742.15, 63871.23, 53256.45, 55069.45, 0.000, 0.000, 0.000, 10:38:21.425
205, 63692.88, 40288.39, 30841.96, 22326.55, 45862.96, 63961.23, 53389.60, 55101.81, 0.000, 0.000, 0.000, 10:38:21.425
206, 63870.35, 40683.41, 31198.21, 22751.01, 46242.05, 64328.63, 53799.11, 55337.20, 0.156, 0.060, 0.974, 10:38:21.425
207, 63867.89, 40633.04, 31165.13, 22689.84, 46189.75, 64304.16, 53742.51, 55350.23, 0.000, 0.000, 0.000, 10:38:21.425
208, 63678.00, 40207.73, 30790.42, 22222.46, 45781.00, 63912.06, 53299.83, 55096.67, 0.000, 0.000, 0.000, 10:38:21.425
209, 63664.23, 40224.96, 30792.16, 22250.45, 45799.13, 63900.68, 53323.39, 55058.69, 0.000, 0.000, 0.000, 10:38:21.425
210, 63851.13, 40635.09, 31151.25, 22691.49, 46193.21, 64278.72, 53751.03, 55302.39, 0.000, 0.000, 0.000, 10:38:21.425
211, 63893.09, 40688.06, 31206.19, 22742.92, 46243.16, 64354.47, 53804.31, 55381.21, 0.000, 0.000, 0.000, 10:38:21.425
212, 63705.18, 40270.76, 30841.90, 22286.57, 45843.00, 63976.52, 53364.43, 55140.86, 0.000, 0.000, 0.000, 10:38:21.425
213, 63636.80, 40173.10, 30742.88, 22200.22, 45750.46, 63859.18, 53266.42, 55033.70, 0.000, 0.000, 0.000, 10:38:21.425
214, 63800.73, 40555.29, 31074.56, 22607.27, 46116.07, 64201.54, 53663.79, 55239.85, 0.000, 0.000, 0.000, 10:38:21.425
215, 63889.73, 40713.16, 31220.67, 22763.33, 46264.76, 64367.32, 53824.21, 55373.18, 0.158, 0.058, 0.976, 10:38:21.425
216, 63735.46, 40347.18, 30904.68, 22365.47, 45911.51, 64040.14, 53439.60, 55178.21, 0.000, 0.000, 0.000, 10:38:21.425
217, 63624.35, 40147.02, 30721.15, 22166.11, 45721.57, 63830.63, 53234.37, 55019.11, 0.000, 0.000, 0.000, 10:38:21.426
218, 63766.15, 40486.94, 31017.92, 22539.74, 46048.68, 64133.46, 53591.95, 55199.00, 0.000, 0.000, 0.000, 10:38:21.426
219, 63903.66, 40744.86, 31252.39, 22807.23, 46293.46, 64391.42, 53858.79, 55387.15, 0.000, 0.000, 0.000, 10:38:21.426
220, 63775.96, 40435.04, 30985.91, 22462.36, 45995.71, 64123.38, 53532.16, 55231.29, 0.000, 0.000, 0.000, 10:38:21.426
221, 63622.14, 40138.52, 30715.05, 22161.73, 45712.13, 63830.07, 53222.52, 55024.76, 0.000, 0.000, 0.000, 10:38:21.426
222, 63733.40, 40418.41, 30958.80, 22469.07, 45983.88, 64072.48, 53516.18, 55159.25, 0.000, 0.000, 0.000, 10:38:21.426
223, 63887.12, 40740.77, 31251.87, 22787.92, 46294.04, 64383.48, 53849.11, 55370.99, 0.000, 0.000, 0.000, 10:38:21.426
224, 63804.84, 40516.38, 31063.31, 22534.56, 46076.51, 64195.68, 53611.06, 55273.76, 0.000, 0.000, 0.000, 10:38:21.426
225, 63633.04, 40151.49, 30732.80, 22153.60, 45726.59, 63844.22, 53232.20, 55032.63, 0.158, 0.056, 0.978, 10:38:21.426
226, 63710.49, 40355.43, 30896.05, 22388.56, 45920.94, 64009.31, 53448.81, 55115.64, 0.000, 0.000, 0.000, 10:38:21.426
227, 63888.97, 40729.30, 31229.03, 22791.80, 46279.53, 64363.63, 53840.63, 55353.91, 0.000, 0.000, 0.000, 10:38:21.426
228, 63836.69, 40585.76, 31111.59, 22634.27, 46139.23, 64252.46, 53692.00, 55310.57, 0.000, 0.000, 0.000, 10:38:21.426
229, 63648.56, 40174.33, 30747.35, 22200.89, 45744.99, 63866.91, 53264.79, 55059.77, 0.000, 0.000, 0.000, 10:38:21.426
230, 63675.51, 40276.34, 30827.21, 22336.30, 45843.56, 63936.27, 53379.18, 55082.92, 0.000, 0.000, 0.000, 10:38:21.426
231, 63844.49, 40657.35, 31161.08, 22750.37, 46206.60, 64288.53, 53780.80, 55306.28, 0.000, 0.000, 0.000, 10:38:21.426
232, 63861.84, 40644.37, 31163.05, 22709.21, 46192.94, 64300.54, 53758.92, 55341.51, 0.000, 0.000, 0.000, 10:38:21.427
